#http://www.gemini.edu/sciops/instruments/niri/filters/niri-H-G0203.dat
#Downloaded on 18 Feb 2013
#H       G0203
#scanned warm
#Wavelength (nm) %T
#renormalized for astrofilt
      3.301      0.0
      3.30000    0.0169890
      3.29900    0.0115363
      3.29800    0.0128771
      3.29700    0.0162745
      3.29600    0.0101760
      3.29500    0.0134116
      3.29400    0.0129620
      3.29300    0.0185756
      3.29200    0.0157818
      3.29100    0.0173050
      3.29000    0.0113540
      3.28900    0.0117311
      3.28800    0.0155191
      3.28700   0.00868896
      3.28600    0.0110557
      3.28500    0.0128998
      3.28400    0.0132100
      3.28300    0.0105514
      3.28200    0.0146573
      3.28100   0.00901907
      3.28000   0.00885532
      3.27900   0.00780236
      3.27800   0.00852453
      3.27700    0.0109947
      3.27600   0.00768097
      3.27500   0.00734950
      3.27400    0.0136891
      3.27300    0.0115318
      3.27200   0.00772808
      3.27100   0.00906244
      3.27000   0.00776103
      3.26900   0.00810348
      3.26800   0.00916516
      3.26700   0.00604367
      3.26600   0.00934295
      3.26500   0.00938531
      3.26400   0.00794664
      3.26300   0.00611343
      3.26200   0.00874117
      3.26100   0.00859463
      3.26000   0.00821945
      3.25900   0.00863902
      3.25800   0.00695189
      3.25700   0.00774552
      3.25600   0.00632066
      3.25500   0.00583394
      3.25400   0.00785536
      3.25300   0.00843982
      3.25200   0.00636551
      3.25100   0.00589509
      3.25000   0.00679018
      3.24900   0.00667716
      3.24800   0.00736388
      3.24700   0.00564822
      3.24600   0.00429958
      3.24500   0.00484316
      3.24400   0.00447318
      3.24300   0.00633720
      3.24200   0.00596496
      3.24100   0.00587629
      3.24000   0.00507576
      3.23900   0.00445393
      3.23800   0.00536895
      3.23700   0.00559997
      3.23600   0.00471745
      3.23500   0.00509569
      3.23400   0.00514133
      3.23300   0.00405259
      3.23200   0.00518040
      3.23100   0.00565875
      3.23000   0.00544551
      3.22900   0.00528277
      3.22800   0.00396902
      3.22700   0.00479321
      3.22600   0.00327618
      3.22500   0.00346927
      3.22400   0.00487237
      3.22300   0.00386404
      3.22200   0.00406482
      3.22100   0.00526760
      3.22000   0.00326690
      3.21900   0.00334730
      3.21800   0.00284891
      3.21700   0.00337278
      3.21600   0.00354808
      3.21500   0.00425473
      3.21400   0.00388816
      3.21300   0.00394557
      3.21200   0.00317992
      3.21100   0.00386766
      3.21000   0.00352034
      3.20900   0.00347413
      3.20800   0.00345398
      3.20700   0.00400491
      3.20600   0.00200580
      3.20500   0.00247860
      3.20400   0.00379167
      3.20300   0.00385453
      3.20200   0.00296895
      3.20100   0.00377956
      3.20000   0.00355533
      3.19900   0.00379654
      3.19800   0.00385509
      3.19700   0.00309646
      3.19600   0.00313893
      3.19500   0.00303690
      3.19400   0.00307846
      3.19300   0.00159891
      3.19200   0.00318343
      3.19100   0.00399348
      3.19000   0.00387151
      3.18900   0.00234599
      3.18800   0.00322160
      3.18700   0.00278889
      3.18600   0.00316101
      3.18500   0.00416629
      3.18400   0.00357753
      3.18300   0.00291969
      3.18200   0.00267123
      3.18100   0.00234010
      3.18000   0.00361512
      3.17900   0.00313395
      3.17800   0.00235980
      3.17700   0.00301402
      3.17600   0.00261619
      3.17500   0.00303724
      3.17400   0.00294619
      3.17300   0.00364808
      3.17200   0.00211916
      3.17100   0.00253579
      3.17000   0.00272672
      3.16900   0.00222028
      3.16800   0.00185711
      3.16700   0.00246410
      3.16600   0.00244598
      3.16500   0.00284653
      3.16400   0.00214248
      3.16300   0.00286861
      3.16200   0.00217974
      3.16100   0.00296068
      3.16000   0.00201622
      3.15900   0.00298786
      3.15800   0.00218416
      3.15700   0.00282060
      3.15600   0.00273442
      3.15500   0.00341457
      3.15400   0.00256534
      3.15300   0.00242197
      3.15200   0.00315705
      3.15100   0.00226751
      3.15000   0.00280599
      3.14900   0.00241858
      3.14800   0.00209775
      3.14700   0.00292410
      3.14600   0.00218031
      3.14500   0.00217102
      3.14400   0.00304052
      3.14300   0.00137683
      3.14200   0.00165644
      3.14100   0.00256987
      3.14000   0.00255628
      3.13900   0.00230522
      3.13800   0.00206004
      3.13700   0.00143187
      3.13600   0.00280882
      3.13500   0.00157331
      3.13400   0.00265628
      3.13300   0.00138669
      3.13200   0.00218303
      3.13100   0.00259320
      3.13000   0.00156527
      3.12900   0.00202596
      3.12800   0.00190422
      3.12700   0.00173378
      3.12600   0.00125997
      3.12500   0.00196027
      3.12400   0.00169064
      3.12300   0.00167841
      3.12200   0.00171340
      3.12100   0.00145112
      3.12000   0.00178146
      3.11900   0.00166686
      3.11800   0.00261970
      3.11700   0.00192698
      3.11600   0.00129768
      3.11500   0.00105508
      3.11400   0.00160106
      3.11300   0.00158577
      3.11200   0.00202799
      3.11100   0.00187160
      3.11000   0.00212505
      3.10900   0.00192992
      3.10800   0.00129677
      3.10700   0.00171883
      3.10600   0.00226649
      3.10500   0.00147649
      3.10400   0.00120697
      3.10300   0.00195235
      3.10200   0.00176696
      3.10100   0.00166561
      3.10000   0.00206061
      3.09900   0.00147445
      3.09800   0.00190263
      3.09700   0.00180796
      3.09600   0.00135690
      3.09500   0.00142383
      3.09400   0.00160502
      3.09300   0.00143617
      3.09200   0.00161431
      3.09100   0.00163651
      3.09000   0.00121138
      3.08900   0.00171929
      3.08800   0.00115465
      3.08700   0.00110813
      3.08600   0.00160378
      3.08500   0.00148306
      3.08400   0.00150435
      3.08300   0.00121410
      3.08200   0.00133878
      3.08100   0.00115578
      3.08000   0.00152201
      3.07900   0.00144127
      3.07800   0.00166448
      3.07700   0.00144988
      3.07600  0.000875487
      3.07500   0.00109659
      3.07400  0.000859757
      3.07300   0.00126869
      3.07200  0.000907796
      3.07100   0.00143629
      3.07000   0.00161340
      3.06900   0.00172438
      3.06800   0.00149336
      3.06700  0.000961870
      3.06600   0.00149948
      3.06500   0.00121535
      3.06400   0.00138397
      3.06300  0.000782365
      3.06200   0.00139201
      3.06100   0.00123256
      3.06000   0.00128239
      3.05900   0.00150152
      3.05800  0.000977079
      3.05700   0.00102601
      3.05600   0.00110212
      3.05500  0.000954849
      3.05400  0.000891681
      3.05300   0.00132316
      3.05200  0.000985221
      3.05100  0.000790859
      3.05000  0.000758346
      3.04900   0.00117469
      3.04800  0.000955381
      3.04700  0.000506093
      3.04600   0.00114672
      3.04500  0.000933706
      3.04400   0.00117922
      3.04300  0.000716672
      3.04200   0.00101069
      3.04100  0.000953853
      3.04000  0.000774880
      3.03900  0.000792014
      3.03800   0.00112539
      3.03700  0.000851094
      3.03600   0.00113212
      3.03500  0.000743907
      3.03400  0.000692143
      3.03300   0.00122214
      3.03200  0.000774608
      3.03100  0.000630311
      3.03000  0.000966910
      3.02900  0.000892361
      3.02800   0.00117854
      3.02700  0.000790474
      3.02600  0.000940569
      3.02500   0.00104297
      3.02400  0.000838207
      3.02300  0.000790281
      3.02200  0.000654455
      3.02100  0.000777451
      3.02000   0.00113256
      3.01900  0.000873347
      3.01800   0.00105423
      3.01700  0.000859746
      3.01600  0.000503386
      3.01500  0.000785400
      3.01400  0.000779625
      3.01300  0.000734995
      3.01200  0.000829317
      3.01100  0.000665009
      3.01000  0.000639846
      3.00900  0.000714452
      3.00800  0.000845760
      3.00700  0.000821446
      3.00600  0.000700093
      3.00500  0.000790044
      3.00400  0.000577346
      3.00300  0.000422620
      3.00200  0.000774495
      3.00100  0.000621252
      3.00000  0.000875340
      2.99900  0.000667116
      2.99800  0.000680252
      2.99700  0.000676561
      2.99600  0.000509762
      2.99500  0.000631987
      2.99400  0.000981507
      2.99300  0.000604616
      2.99200  0.000513284
      2.99100  0.000701633
      2.99000  0.000678927
      2.98900  0.000639960
      2.98800  0.000636019
      2.98700  0.000818298
      2.98600  0.000594560
      2.98500  0.000441146
      2.98400  0.000852362
      2.98300  0.000732866
      2.98200  0.000663073
      2.98100  0.000626302
      2.98000  0.000541629
      2.97900  0.000441803
      2.97800  0.000487011
      2.97700  0.000675530
      2.97600  0.000513284
      2.97500  0.000651284
      2.97400  0.000663651
      2.97300  0.000643289
      2.97200  0.000655803
      2.97100  0.000435677
      2.97000  0.000616439
      2.96900  0.000476411
      2.96800  0.000774008
      2.96700  0.000589781
      2.96600  0.000303021
      2.96500  0.000552500
      2.96400  0.000431272
      2.96300  0.000399268
      2.96200  0.000729469
      2.96100  0.000609984
      2.96000  0.000477759
      2.95900  0.000347346
      2.95800  0.000613132
      2.95700  0.000483885
      2.95600  0.000369802
      2.95500  0.000534166
      2.95400  0.000365578
      2.95300  0.000623947
      2.95200  0.000621625
      2.95100  0.000359531
      2.95000  0.000695688
      2.94900  0.000489876
      2.94800  0.000487826
      2.94700  0.000658339
      2.94600  0.000614978
      2.94500  0.000480080
      2.94400  0.000647649
      2.94300  0.000500068
      2.94200  0.000367594
      2.94100  0.000481552
      2.94000  0.000580925
      2.93900  0.000284494
      2.93800  0.000485516
      2.93700  0.000470160
      2.93600  0.000492967
      2.93500  0.000440444
      2.93400  0.000263907
      2.93300  0.000398351
      2.93200  0.000482934
      2.93100  0.000430920
      2.93000  0.000452924
      2.92900  0.000487679
      2.92800  0.000424692
      2.92700  0.000422552
      2.92600  0.000385339
      2.92500  0.000477849
      2.92400  0.000558310
      2.92300  0.000402541
      2.92200  0.000481971
      2.92100  0.000537858
      2.92000  0.000534200
      2.91900  0.000302478
      2.91800  0.000243115
      2.91700  0.000616031
      2.91600  0.000522287
      2.91500  0.000384932
      2.91400  0.000393901
      2.91300  0.000546884
      2.91200  0.000477996
      2.91100  0.000518969
      2.91000  0.000308842
      2.90900  0.000360561
      2.90800  0.000401601
      2.90700  0.000399314
      2.90600  0.000333065
      2.90500  0.000414987
      2.90400  0.000412699
      2.90300  0.000346983
      2.90200  0.000406946
      2.90100  0.000342544
      2.90000  0.000502582
      2.89900  0.000205732
      2.89800  0.000384037
      2.89700  0.000450614
      2.89600  0.000357651
      2.89500  0.000325048
      2.89400  0.000437659
      2.89300  0.000481892
      2.89200  0.000268391
      2.89100  0.000453977
      2.89000  0.000151647
      2.88900  0.000334911
      2.88800  0.000395112
      2.88700  0.000282750
      2.88600  0.000342668
      2.88500  0.000481473
      2.88400  0.000266002
      2.88300  0.000350426
      2.88200  0.000243579
      2.88100  0.000301323
      2.88000  0.000298492
      2.87900  0.000312387
      2.87800  0.000276567
      2.87700  0.000372803
      2.87600  0.000270962
      2.87500  0.000228110
      2.87400  0.000250204
      2.87300  0.000366495
      2.87200  0.000323507
      2.87100  0.000257837
      2.87000  0.000263012
      2.86900  0.000336836
      2.86800  0.000212810
      2.86700  0.000233398
      2.86600  0.000297325
      2.86500  0.000433276
      2.86400  0.000298741
      2.86300  0.000331922
      2.86200  0.000207895
      2.86100  0.000325716
      2.86000  0.000280565
      2.85900  0.000270837
      2.85800  0.000145135
      2.85700  0.000224373
      2.85600  0.000329045
      2.85500  0.000245867
      2.85400  0.000256081
      2.85300  0.000175858
      2.85200  0.000307993
      2.85100  0.000292048
      2.85000  0.000207612
      2.84900  0.000254541
      2.84800  0.000221100
      2.84700  0.000127978
      2.84600  0.000263714
      2.84500  0.000237113
      2.84400  0.000164092
      2.84300  0.000242684
      2.84200  0.000148691
      2.84100  0.000259128
      2.84000  0.000195959
      2.83900  0.000251778
      2.83800  0.000233353
      2.83700  0.000263601
      2.83600  0.000219548
      2.83500  0.000173684
      2.83400  0.000151681
      2.83300  0.000221100
      2.83200  0.000202777
      2.83100  0.000204566
      2.83000  0.000247180
      2.82900  0.000202312
      2.82800  0.000237781
      2.82700  0.000169392
      2.82600  0.000145656
      2.82500  0.000153900
      2.82400  0.000202811
      2.82300  0.000149133
      2.82200  0.000146981
      2.82100  0.000249502
      2.82000  0.000167693
      2.81900  0.000206004
      2.81800  0.000214045
      2.81700  0.000152541
      2.81600  0.000127254
      2.81500  0.000162858
      2.81400  0.000115363
      2.81300  0.000156980
      2.81200  0.000187092
      2.81100  0.000236886
      2.81000  0.000149121
      2.80900  0.000161159
      2.80800  0.000191101
      2.80700  0.000165281
      2.80600  0.000139269
      2.80500  0.000153640
      2.80400  0.000135124
      2.80300  0.000179222
      2.80200  0.000142519
      2.80100  0.000175473
      2.80000  0.000207227
      2.79900  0.000231009
      2.79800  0.000164658
      2.79700  0.000193830
      2.79600  0.000203049
      2.79500  0.000198213
      2.79400  0.000194091
      2.79300  0.000218518
      2.79200  0.000239457
      2.79100  0.000192109
      2.79000  0.000245617
      2.78900  0.000203275
      2.78800  0.000128794
      2.78700  0.000180003
      2.78600  0.000146562
      2.78500  0.000203377
      2.78400  0.000210511
      2.78300  0.000178237
      2.78200  0.000205993
      2.78100  0.000219401
      2.78000  0.000167014
      2.77900  0.000177206
      2.77800  0.000145475
      2.77700  0.000181940
      2.77600  0.000122905
      2.77500  0.000193932
      2.77400  0.000212312
      2.77300  0.000194600
      2.77200  0.000156743
      2.77100  0.000184669
      2.77000  0.000169256
      2.76900  0.000242605
      2.76800  0.000127401
      2.76700  0.000157218
      2.76600  0.000165678
      2.76500  0.000195676
      2.76400  0.000218858
      2.76300  0.000134014
      2.76200  0.000180807
      2.76100  0.000165859
      2.76000  0.000243545
      2.75900  0.000104678
      2.75800  0.000149586
      2.75700  0.000195552
      2.75600  0.000224554
      2.75500  0.000172438
      2.75400  0.000180207
      2.75300  0.000215053
      2.75200  0.000178542
      2.75100  0.000117175
      2.75000  0.000166391
      2.74900  0.000149857
      2.74800  0.000199957
      2.74700  0.000212810
      2.74600  0.000193525
      2.74500  0.000241246
      2.74400  0.000135509
      2.74300  0.000194759
      2.74200  0.000243568
      2.74100  0.000190490
      2.74000  0.000182144
      2.73900  0.000107723
      2.73800  0.000185552
      2.73700  0.000149212
      2.73600  0.000205993
      2.73500  0.000219786
      2.73400  0.000202075
      2.73300  0.000170626
      2.73200  0.000186821
      2.73100  0.000147490
      2.73000  0.000175530
      2.72900  0.000166085
      2.72800  0.000175258
      2.72700  0.000197647
      2.72600  0.000181113
      2.72500  0.000230692
      2.72400  0.000201837
      2.72300  0.000188168
      2.72200  0.000210896
      2.72100  0.000150435
      2.72000  0.000130005
      2.71900  0.000222312
      2.71800  0.000155044
      2.71700  0.000203422
      2.71600  0.000128284
      2.71500  0.000185926
      2.71400  0.000217748
      2.71300  0.000183061
      2.71200  0.000180875
      2.71100  0.000184567
      2.71000  0.000139178
      2.70900  0.000199855
      2.70800  0.000134399
      2.70700  0.000172665
      2.70600  9.62255e-05
      2.70500  0.000216615
      2.70400  0.000170479
      2.70300  0.000224724
      2.70200  0.000195971
      2.70100  0.000149200
      2.70000  0.000180445
      2.69900  0.000166867
      2.69800  0.000172495
      2.69700  0.000136143
      2.69600  0.000219333
      2.69500  0.000219911
      2.69400  0.000171985
      2.69300  0.000121331
      2.69200  0.000144739
      2.69100  0.000129677
      2.69000  0.000190150
      2.68900  0.000198485
      2.68800  0.000232028
      2.68700  0.000141488
      2.68600  0.000221100
      2.68500  0.000155599
      2.68400  0.000195167
      2.68300  0.000187885
      2.68200  0.000201871
      2.68100  0.000194680
      2.68000  0.000230805
      2.67900  0.000161544
      2.67800  0.000223863
      2.67700  0.000247803
      2.67600  0.000165859
      2.67500  0.000229605
      2.67400  0.000157852
      2.67300  0.000247112
      2.67200  0.000140265
      2.67100  0.000204770
      2.67000  0.000182245
      2.66900  0.000194147
      2.66800  0.000154806
      2.66700  0.000200591
      2.66600  0.000149518
      2.66500  0.000214656
      2.66400  0.000125510
      2.66300  0.000221904
      2.66200  0.000213796
      2.66100  0.000237056
      2.66000  0.000157637
      2.65900  0.000131364
      2.65800  0.000187885
      2.65700  0.000119066
      2.65600  0.000202573
      2.65500  0.000184261
      2.65400  0.000175666
      2.65300  0.000116710
      2.65200  0.000152643
      2.65100  0.000188961
      2.65000  0.000169743
      2.64900  0.000209911
      2.64800  0.000175949
      2.64700  0.000121218
      2.64600  0.000140888
      2.64500  0.000111481
      2.64400  9.60477e-05
      2.64300  0.000161001
      2.64200  0.000207748
      2.64100  0.000157558
      2.64000  0.000200444
      2.63900  0.000217136
      2.63800  0.000153674
      2.63700  0.000159608
      2.63600  0.000168565
      2.63500  0.000153878
      2.63400  0.000140922
      2.63300  0.000226049
      2.63200  0.000145577
      2.63100  0.000191633
      2.63000  0.000108474
      2.62900  0.000129292
      2.62800  0.000120436
      2.62700  0.000180819
      2.62600  0.000243330
      2.62500  0.000202414
      2.62400  0.000159596
      2.62300  0.000143629
      2.62200  0.000200648
      2.62100  0.000194102
      2.62000  0.000174703
      2.61900  0.000168781
      2.61800  0.000185065
      2.61700  0.000214045
      2.61600  0.000216162
      2.61500  0.000231099
      2.61400  0.000187341
      2.61300  0.000187545
      2.61200  0.000151884
      2.61100  0.000128590
      2.61000  0.000132599
      2.60900  0.000127763
      2.60800  0.000218948
      2.60700  0.000205698
      2.60600  0.000189572
      2.60500  0.000196322
      2.60400  0.000142881
      2.60300  0.000175270
      2.60200  0.000171680
      2.60100  0.000158668
      2.60000  0.000156641
      2.59900  0.000252922
      2.59800  0.000170876
      2.59700  0.000180819
      2.59600  0.000170275
      2.59500  0.000196129
      2.59400  0.000206412
      2.59300  0.000178791
      2.59200  0.000187998
      2.59100  0.000205132
      2.59000  0.000165406
      2.58900  0.000210806
      2.58800  0.000153606
      2.58700  0.000205846
      2.58600  0.000195427
      2.58500  0.000196560
      2.58400  0.000186832
      2.58300  0.000186685
      2.58200  0.000200376
      2.58100  0.000147219
      2.58000  0.000195506
      2.57900  0.000155089
      2.57800  0.000151907
      2.57700  0.000251767
      2.57600  0.000111739
      2.57500  0.000168112
      2.57400  0.000149019
      2.57300  0.000187296
      2.57200  0.000196526
      2.57100  0.000104806
      2.57000  0.000190093
      2.56900  0.000182200
      2.56800  0.000194736
      2.56700  0.000130356
      2.56600  0.000175190
      2.56500  0.000176628
      2.56400  0.000221915
      2.56300  0.000153504
      2.56200  0.000191475
      2.56100  0.000171091
      2.56000  0.000130549
      2.55900  0.000157399
      2.55800  0.000163911
      2.55700  0.000214939
      2.55600  0.000153923
      2.55500  0.000198496
      2.55400  0.000112236
      2.55300  0.000190365
      2.55200  0.000223297
      2.55100  0.000198473
      2.55000  0.000192528
      2.54900  0.000184601
      2.54800  0.000205982
      2.54700  0.000161035
      2.54600  0.000167308
      2.54500  0.000230590
      2.54400  0.000171057
      2.54300  3.19816e-05
      2.54200  0.000136868
      2.54100  0.000152745
      2.54000  0.000155882
      2.53900  0.000171000
      2.53800  0.000156833
      2.53700  0.000164273
      2.53600  0.000161533
      2.53500  0.000141840
      2.53400  0.000156086
      2.53300  0.000158305
      2.53200  0.000152428
      2.53100  0.000223229
      2.53000  7.59490e-05
      2.52900  0.000156561
      2.52800  0.000201565
      2.52700  0.000177127
      2.52600  0.000153866
      2.52500  0.000190354
      2.52400  0.000185303
      2.52300  0.000208530
      2.52200  0.000135000
      2.52100  0.000171464
      2.52000  0.000155225
      2.51900  0.000163164
      2.51800  0.000101089
      2.51700  0.000256217
      2.51600  0.000189357
      2.51500  0.000172835
      2.51400  0.000137298
      2.51300  0.000139699
      2.51200  0.000148385
      2.51100  0.000189776
      2.51000  0.000125566
      2.50900  0.000139631
      2.50800  0.000179731
      2.50700  0.000135249
      2.50600  0.000181034
      2.50500  0.000195756
      2.50400  0.000203422
      2.50300  0.000135996
      2.50200  0.000170921
      2.50100  0.000218088
      2.50000  0.000180649
      2.49900  0.000186198
      2.49800  0.000178825
      2.49700  0.000192653
      2.49600  0.000223172
      2.49500  0.000181419
      2.49400  0.000228653
      2.49300  0.000117945
      2.49200  0.000119893
      2.49100  0.000189708
      2.49000  0.000175405
      2.48900  0.000228042
      2.48800  0.000167761
      2.48700  0.000208677
      2.48600  0.000143878
      2.48500  0.000209515
      2.48400  0.000162212
      2.48300  0.000125419
      2.48200  0.000161544
      2.48100  0.000176696
      2.48000  0.000170604
      2.47900  0.000152790
      2.47800  0.000190252
      2.47700  0.000232300
      2.47600  0.000144897
      2.47500  0.000190388
      2.47400  0.000133754
      2.47300  0.000158940
      2.47200  0.000181555
      2.47100  0.000191192
      2.47000  0.000149835
      2.46900  0.000149291
      2.46800  0.000186220
      2.46700  0.000199810
      2.46600  0.000102145
      2.46500  0.000231530
      2.46400  0.000181951
      2.46300  0.000172721
      2.46200  0.000203366
      2.46100  0.000141636
      2.46000  0.000154942
      2.45900  0.000184069
      2.45800  0.000188474
      2.45700  0.000162722
      2.45600  0.000179958
      2.45500  0.000176153
      2.45400  0.000170513
      2.45300  0.000194940
      2.45200  0.000180264
      2.45100  0.000222413
      2.45000  0.000253216
      2.44900  0.000223308
      2.44800  0.000245289
      2.44700  0.000158668
      2.44600  0.000110258
      2.44500  0.000175473
      2.44400  0.000133120
      2.44300  0.000190422
      2.44200  0.000195461
      2.44100  0.000129892
      2.44000  0.000110150
      2.43900  0.000194057
      2.43800  0.000119723
      2.43700  0.000184725
      2.43600  0.000106303
      2.43500  0.000222232
      2.43400  0.000119077
      2.43300  0.000213331
      2.43200  0.000178791
      2.43100  0.000110121
      2.43000  0.000147864
      2.42900  0.000110630
      2.42800  0.000246716
      2.42700  0.000161397
      2.42600  0.000188429
      2.42500  0.000167490
      2.42400  0.000206219
      2.42300  0.000174522
      2.42200  0.000225414
      2.42100  0.000221122
      2.42000  0.000130277
      2.41900  0.000231734
      2.41800  0.000210262
      2.41700  0.000221394
      2.41600  0.000170468
      2.41500  0.000179697
      2.41400  0.000179131
      2.41300  0.000151816
      2.41200  0.000216355
      2.41100  0.000199753
      2.41000  0.000182744
      2.40900  0.000119938
      2.40800  0.000184567
      2.40700  0.000234202
      2.40600  0.000179267
      2.40500  0.000189991
      2.40400  0.000150140
      2.40300  0.000155916
      2.40200  0.000208903
      2.40100  0.000222006
      2.40000  0.000202301
      2.39900  0.000184103
      2.39800  0.000166017
      2.39700  0.000198066
      2.39600  0.000196945
      2.39500  0.000116529
      2.39400  0.000147649
      2.39300  0.000164104
      2.39200  0.000113857
      2.39100  0.000123041
      2.39000  0.000133380
      2.38900  0.000166516
      2.38800  0.000135385
      2.38700  0.000211836
      2.38600  0.000160389
      2.38500  0.000183310
      2.38400  0.000141885
      2.38300  0.000142428
      2.38200  0.000191316
      2.38100  0.000233840
      2.38000  0.000197975
      2.37900  0.000194589
      2.37800  0.000218710
      2.37700  0.000147071
      2.37600  0.000169007
      2.37500  0.000179924
      2.37400  0.000156074
      2.37300  0.000115170
      2.37200  0.000219333
      2.37100  0.000229480
      2.37000  0.000202109
      2.36900  0.000169845
      2.36800  0.000147253
      2.36700  0.000194476
      2.36600  0.000127922
      2.36500  0.000261993
      2.36400  0.000135985
      2.36300  0.000207839
      2.36200  0.000155508
      2.36100  0.000218065
      2.36000  0.000222391
      2.35900  0.000145090
      2.35800  0.000194159
      2.35700  0.000193140
      2.35600  0.000159698
      2.35500  0.000170808
      2.35400  0.000241643
      2.35300  0.000173582
      2.35200  0.000119508
      2.35100  0.000225199
      2.35000  0.000114219
      2.34900  0.000196084
      2.34800  0.000151262
      2.34700  0.000173492
      2.34600  0.000186696
      2.34500  0.000104542
      2.34400  0.000197352
      2.34300  0.000169754
      2.34200  0.000227815
      2.34100  0.000213682
      2.34000  0.000237011
      2.33900  0.000187625
      2.33800  0.000159766
      2.33700  0.000201271
      2.33600  0.000183604
      2.33500  0.000165678
      2.33400  0.000217940
      2.33300  0.000194646
      2.33200  0.000188474
      2.33100  0.000171329
      2.33000  0.000171419
      2.32900  6.70740e-05
      2.32800  0.000227804
      2.32700  0.000184125
      2.32600  0.000192834
      2.32500  0.000188327
      2.32400  0.000248369
      2.32300  0.000182925
      2.32200  0.000147434
      2.32100  0.000215947
      2.32000  0.000169619
      2.31900  0.000141590
      2.31800  0.000151443
      2.31700  0.000192098
      2.31600  0.000202222
      2.31500  0.000171578
      2.31400  0.000166663
      2.31300  0.000120731
      2.31200  0.000154070
      2.31100  0.000168452
      2.31000  0.000146098
      2.30900  0.000178169
      2.30800  0.000156516
      2.30700  0.000183899
      2.30600  0.000177308
      2.30500  0.000156154
      2.30400  0.000200840
      2.30300  0.000175428
      2.30200  0.000172087
      2.30100  0.000168350
      2.30000  0.000173469
      2.29900  0.000184057
      2.29800  0.000206774
      2.29700  0.000223863
      2.29600  0.000177081
      2.29500  0.000267089
      2.29400  0.000212516
      2.29300  0.000172789
      2.29200  0.000229525
      2.29100  0.000162529
      2.29000  0.000181305
      2.28900  0.000195042
      2.28800  0.000191033
      2.28700  0.000188304
      2.28600  0.000181079
      2.28500  0.000193060
      2.28400  0.000225007
      2.28300  0.000149200
      2.28200  0.000161510
      2.28100  0.000173095
      2.28000  0.000190150
      2.27900  0.000202482
      2.27800  0.000174409
      2.27700  0.000215619
      2.27600  0.000169143
      2.27500  0.000168339
      2.27400  0.000166244
      2.27300  0.000222583
      2.27200  0.000165904
      2.27100  0.000198983
      2.27000  0.000214124
      2.26900  0.000154885
      2.26800  0.000221859
      2.26700  0.000170060
      2.26600  0.000169822
      2.26500  0.000151567
      2.26400  0.000153028
      2.26300  0.000158000
      2.26200  0.000161510
      2.26100  0.000200670
      2.26000  0.000177784
      2.25900  0.000173695
      2.25800  0.000174013
      2.25700  0.000207318
      2.25600  0.000163084
      2.25500  0.000174069
      2.25400  0.000199198
      2.25300  0.000189391
      2.25200  0.000204883
      2.25100  0.000123267
      2.25000  0.000150741
      2.24900  0.000212584
      2.24800  0.000127922
      2.24700  0.000206185
      2.24600  0.000142270
      2.24500  0.000185473
      2.24400  0.000195189
      2.24300  0.000166278
      2.24200  0.000151465
      2.24100  0.000202052
      2.24000  0.000187828
      2.23900  0.000146652
      2.23800  0.000141806
      2.23700  0.000175904
      2.23600  0.000132519
      2.23500  0.000184567
      2.23400  0.000229367
      2.23300  0.000188145
      2.23200  0.000187591
      2.23100  0.000110849
      2.23000  0.000185360
      2.22900  0.000221496
      2.22800  0.000141896
      2.22700  0.000232945
      2.22600  9.67736e-05
      2.22500  0.000183435
      2.22400  0.000164681
      2.22300  0.000179550
      2.22200  0.000176719
      2.22100  0.000175371
      2.22000  0.000159868
      2.21900  0.000119666
      2.21800  0.000170015
      2.21700  0.000183197
      2.21600  0.000214928
      2.21500  0.000193955
      2.21400  0.000248573
      2.21300  0.000138035
      2.21200  0.000177365
      2.21100  0.000192709
      2.21000  0.000164183
      2.20900  0.000179686
      2.20800  0.000223637
      2.20700  0.000133573
      2.20600  0.000205970
      2.20500  0.000146267
      2.20400  0.000137129
      2.20300  0.000179947
      2.20200  0.000127537
      2.20100  0.000150401
      2.20000  0.000200886
      2.19900  0.000182857
      2.19800  0.000151511
      2.19700  0.000224860
      2.19600  0.000179675
      2.19500  0.000147830
      2.19400  0.000136993
      2.19300  0.000129337
      2.19200  0.000149710
      2.19100  0.000198372
      2.19000  0.000149370
      2.18900  0.000177648
      2.18800  0.000181487
      2.18700  0.000166901
      2.18600  0.000135079
      2.18500  0.000148510
      2.18400  0.000189901
      2.18300  0.000169494
      2.18200  0.000182687
      2.18100  0.000199244
      2.18000  0.000165077
      2.17900  0.000197273
      2.17800  0.000161748
      2.17700  0.000171963
      2.17600  0.000158804
      2.17500  0.000152915
      2.17400  0.000149631
      2.17300  0.000176243
      2.17200  0.000180773
      2.17100  0.000161374
      2.17000  0.000129960
      2.16900  0.000212425
      2.16800  0.000171408
      2.16700  0.000203400
      2.16600  0.000152213
      2.16500  0.000134569
      2.16400  0.000128590
      2.16300  0.000203592
      2.16200  0.000134297
      2.16100  0.000198643
      2.16000  0.000193910
      2.15900  0.000180411
      2.15800  0.000142530
      2.15700  0.000176810
      2.15600  0.000185314
      2.15500  0.000184420
      2.15400  0.000184816
      2.15300  0.000184759
      2.15200  0.000207884
      2.15100  0.000212482
      2.15000  0.000185541
      2.14900  0.000189244
      2.14800  0.000188621
      2.14700  0.000171351
      2.14600  0.000147626
      2.14500  0.000125226
      2.14400  0.000174522
      2.14300  0.000149631
      2.14200  0.000120266
      2.14100  0.000157592
      2.14000  0.000174420
      2.13900  0.000149642
      2.13800  0.000161374
      2.13700  0.000191158
      2.13600  0.000144116
      2.13500  0.000153379
      2.13400  0.000146177
      2.13300  0.000136313
      2.13200  0.000163481
      2.13100  0.000163107
      2.13000  0.000186368
      2.12900  0.000142191
      2.12800  0.000208382
      2.12700  0.000196356
      2.12600  0.000212482
      2.12500  0.000189776
      2.12400  0.000194125
      2.12300  0.000166618
      2.12200  0.000184680
      2.12100  0.000166878
      2.12000  0.000199040
      2.11900  0.000176368
      2.11800  0.000241246
      2.11700  0.000190173
      2.11600  0.000203728
      2.11500  0.000115295
      2.11400  0.000208790
      2.11300  0.000185269
      2.11200  0.000143765
      2.11100  0.000166765
      2.11000  0.000184159
      2.10900  0.000186617
      2.10800  0.000183570
      2.10700  0.000134581
      2.10600  9.96093e-05
      2.10500  0.000100378
      2.10400  0.000157128
      2.10300  0.000228495
      2.10200  0.000187047
      2.10100  0.000228280
      2.10000  0.000198802
      2.09900  0.000156980
      2.09800  0.000188078
      2.09700  0.000189550
      2.09600  0.000169369
      2.09500  0.000187545
      2.09400  0.000160570
      2.09300  0.000184895
      2.09200  0.000203773
      2.09100  0.000152734
      2.09000  0.000166493
      2.08900  0.000194476
      2.08800  0.000188950
      2.08700  0.000171883
      2.08600  0.000180501
      2.08500  0.000226943
      2.08400  0.000157298
      2.08300  0.000199561
      2.08200  0.000198791
      2.08100  0.000200183
      2.08000  0.000209198
      2.07900  0.000232266
      2.07800  0.000194884
      2.07700  0.000120504
      2.07600  0.000143991
      2.07500  0.000204136
      2.07400  0.000194114
      2.07300  0.000138499
      2.07200  0.000181555
      2.07100  0.000213807
      2.07000  0.000239819
      2.06900  0.000171827
      2.06800  0.000162337
      2.06700  0.000195257
      2.06600  0.000165168
      2.06500  0.000158203
      2.06400  0.000207035
      2.06300  0.000158543
      2.06200  0.000153549
      2.06100  0.000168022
      2.06000  0.000207193
      2.05900  0.000164794
      2.05800  0.000164285
      2.05700  0.000139597
      2.05600  0.000135022
      2.05500  0.000160933
      2.05400  0.000125963
      2.05300  0.000142247
      2.05200  0.000190263
      2.05100  0.000203943
      2.05000  0.000204328
      2.04900  0.000241133
      2.04800  0.000227192
      2.04700  0.000204849
      2.04600  0.000232300
      2.04500  0.000176323
      2.04400  0.000204430
      2.04300  0.000180649
      2.04200  0.000162801
      2.04100  0.000158917
      2.04000  0.000199515
      2.03900  0.000196095
      2.03800  0.000204113
      2.03700  0.000207952
      2.03600  0.000142327
      2.03500  0.000191362
      2.03400  0.000216740
      2.03300  0.000135339
      2.03200  0.000158475
      2.03100  0.000208733
      2.03000  0.000170513
      2.02900  0.000207760
      2.02800  0.000159880
      2.02700  0.000131285
      2.02600  0.000176742
      2.02500  0.000140141
      2.02400  0.000168565
      2.02300  0.000118081
      2.02200  0.000204249
      2.02100  0.000143391
      2.02000  0.000167433
      2.01900  0.000228030
      2.01800  0.000181339
      2.01700  0.000214056
      2.01600  9.69650e-05
      2.01500  0.000149450
      2.01400  0.000158260
      2.01300  0.000139359
      2.01200  0.000194906
      2.01100  0.000195914
      2.01000  0.000195506
      2.00900  0.000199776
      2.00800  0.000102482
      2.00700  7.48630e-05
      2.00600  0.000204713
      2.00500  0.000181373
      2.00400  0.000199878
      2.00300  0.000163073
      2.00200  0.000222832
      2.00100  0.000199980
      2.00000  0.000168396
      1.99900  0.000185416
      1.99800  0.000163764
      1.99700  0.000165417
      1.99600  0.000198439
      1.99500  0.000110944
      1.99400  0.000212788
      1.99300  0.000186073
      1.99200  0.000213184
      1.99100  0.000199402
      1.99000  0.000121002
      1.98900  0.000158181
      1.98800  0.000208881
      1.98700  0.000213830
      1.98600  0.000105290
      1.98500  0.000163583
      1.98400  0.000194793
      1.98300  0.000209334
      1.98200  0.000162382
      1.98100  0.000128160
      1.98000  0.000133595
      1.97900  0.000167739
      1.97800  0.000194850
      1.97700  0.000199436
      1.97600  0.000148895
      1.97500  0.000134445
      1.97400  0.000144150
      1.97300  0.000139348
      1.97200  0.000172167
      1.97100  0.000130198
      1.97000  0.000166867
      1.96900  0.000198904
      1.96800  0.000176776
      1.96700  0.000186073
      1.96600  0.000157762
      1.96500  0.000185575
      1.96400  0.000200965
      1.96300  0.000181362
      1.96200  0.000217793
      1.96100  0.000129485
      1.96000  0.000171940
      1.95900  0.000172314
      1.95800  0.000151126
      1.95700  0.000166878
      1.95600  0.000234429
      1.95500  0.000141794
      1.95400  0.000226105
      1.95300  0.000178463
      1.95200  0.000127978
      1.95100  0.000201089
      1.95000  0.000162903
      1.94900  0.000148781
      1.94800  0.000125521
      1.94700  0.000181657
      1.94600  0.000194634
      1.94500  0.000168339
      1.94400  0.000125781
      1.94300  0.000110927
      1.94200  0.000209458
      1.94100  0.000219356
      1.94000  0.000154342
      1.93900  0.000209209
      1.93800  0.000195087
      1.93700  0.000158656
      1.93600  0.000204147
      1.93500  0.000157558
      1.93400  0.000153617
      1.93300  0.000242526
      1.93200  0.000209866
      1.93100  0.000154036
      1.93000  0.000159551
      1.92900  0.000177047
      1.92800  0.000218314
      1.92700  0.000172710
      1.92600  0.000120617
      1.92500  0.000158532
      1.92400  0.000270146
      1.92300  0.000177489
      1.92200  0.000217397
      1.92100  0.000164443
      1.92000  0.000184340
      1.91900  0.000213309
      1.91800  0.000136619
      1.91700  0.000215222
      1.91600  0.000182687
      1.91500  0.000188700
      1.91400  0.000212776
      1.91300  0.000204872
      1.91200  0.000183208
      1.91100  0.000211621
      1.91000  0.000255458
      1.90900  0.000330936
      1.90800  0.000146098
      1.90700  0.000240521
      1.90600  0.000264903
      1.90500  0.000149495
      1.90400  0.000218722
      1.90300  0.000110527
      1.90200  0.000248528
      1.90100  0.000211667
      1.90000  0.000199289
      1.89900  0.000216797
      1.89800  0.000237724
      1.89700  0.000238064
      1.89600  0.000217317
      1.89500  0.000205993
      1.89400  0.000155701
      1.89300  0.000219798
      1.89200  0.000220579
      1.89100  0.000194295
      1.89000  0.000282569
      1.88900  0.000275650
      1.88800  0.000230159
      1.88700  0.000221768
      1.88600  0.000232334
      1.88500  0.000301583
      1.88400  0.000178338
      1.88300  0.000313406
      1.88200  0.000253103
      1.88100  0.000247237
      1.88000  0.000292037
      1.87900  0.000343971
      1.87800  0.000249909
      1.87700  0.000323972
      1.87600  0.000217182
      1.87500  0.000295978
      1.87400  0.000354718
      1.87300  0.000324878
      1.87200  0.000348387
      1.87100  0.000320846
      1.87000  0.000278934
      1.86900  0.000382021
      1.86800  0.000388691
      1.86700  0.000354186
      1.86600  0.000420106
      1.86500  0.000402836
      1.86400  0.000455540
      1.86300  0.000469095
      1.86200  0.000334379
      1.86100  0.000510509
      1.86000  0.000510237
      1.85900  0.000494972
      1.85800  0.000560439
      1.85700  0.000528776
      1.85600  0.000664047
      1.85500  0.000623698
      1.85400  0.000678803
      1.85300  0.000706740
      1.85200  0.000800915
      1.85100  0.000882644
      1.85000  0.000867537
      1.84900  0.000918271
      1.84800  0.000982481
      1.84700   0.00115533
      1.84600   0.00120040
      1.84500   0.00138782
      1.84400   0.00143368
      1.84300   0.00153323
      1.84200   0.00162677
      1.84100   0.00180762
      1.84000   0.00199946
      1.83900   0.00220239
      1.83800   0.00239683
      1.83700   0.00259547
      1.83600   0.00287292
      1.83500   0.00320348
      1.83400   0.00353427
      1.83300   0.00387423
      1.83200   0.00426459
      1.83100   0.00477589
      1.83000   0.00540814
      1.82900   0.00602849
      1.82800   0.00678588
      1.82700   0.00758856
      1.82600   0.00855624
      1.82500   0.00970228
      1.82400    0.0108508
      1.82300    0.0122192
      1.82200    0.0138057
      1.82100    0.0158849
      1.82000    0.0181736
      1.81900    0.0207544
      1.81800    0.0236762
      1.81700    0.0268663
      1.81600    0.0307653
      1.81500    0.0355839
      1.81400    0.0406912
      1.81300    0.0467374
      1.81200    0.0538820
      1.81100    0.0620176
      1.81000    0.0714079
      1.80900    0.0824255
      1.80800    0.0947364
      1.80700     0.109012
      1.80600     0.125362
      1.80500     0.144070
      1.80400     0.164840
      1.80300     0.188225
      1.80200     0.214532
      1.80100     0.243987
      1.80000     0.275684
      1.79900     0.310745
      1.79800     0.347255
      1.79700     0.386007
      1.79600     0.427919
      1.79500     0.469061
      1.79400     0.511800
      1.79300     0.553961
      1.79200     0.594730
      1.79100     0.634037
      1.79000     0.672110
      1.78900     0.707408
      1.78800     0.739276
      1.78700     0.769071
      1.78600     0.795196
      1.78500     0.818434
      1.78400     0.838660
      1.78300     0.856666
      1.78200     0.871478
      1.78100     0.883890
      1.78000     0.894263
      1.77900     0.902383
      1.77800     0.908373
      1.77700     0.913118
      1.77600     0.916153
      1.77500     0.917705
      1.77400     0.918203
      1.77300     0.917693
      1.77200     0.916119
      1.77100     0.913945
      1.77000     0.911284
      1.76900     0.908124
      1.76800     0.904636
      1.76700     0.900865
      1.76600     0.897423
      1.76500     0.894059
      1.76400     0.890164
      1.76300     0.886891
      1.76200     0.884331
      1.76100     0.881478
      1.76000     0.879269
      1.75900     0.877514
      1.75800     0.876325
      1.75700     0.875510
      1.75600     0.875272
      1.75500     0.875634
      1.75400     0.876359
      1.75300     0.877865
      1.75200     0.879575
      1.75100     0.881965
      1.75000     0.884750
      1.74900     0.888023
      1.74800     0.891749
      1.74700     0.895746
      1.74600     0.899993
      1.74500     0.904738
      1.74400     0.909778
      1.74300     0.914511
      1.74200     0.919596
      1.74100     0.924839
      1.74000     0.929879
      1.73900     0.934997
      1.73800     0.939935
      1.73700     0.944759
      1.73600     0.949164
      1.73500     0.953275
      1.73400     0.957442
      1.73300     0.961078
      1.73200     0.964056
      1.73100     0.966955
      1.73000     0.969299
      1.72900     0.971134
      1.72800     0.972821
      1.72700     0.974237
      1.72600     0.975075
      1.72500     0.975709
      1.72400     0.976003
      1.72300     0.976162
      1.72200     0.975856
      1.72100     0.975664
      1.72000     0.975279
      1.71900     0.974610
      1.71800     0.974090
      1.71700     0.973591
      1.71600     0.973025
      1.71500     0.972357
      1.71400     0.972006
      1.71300     0.971768
      1.71200     0.971338
      1.71100     0.971236
      1.71000     0.971213
      1.70900     0.971485
      1.70800     0.971938
      1.70700     0.972368
      1.70600     0.973444
      1.70500     0.974293
      1.70400     0.975335
      1.70300     0.976468
      1.70200     0.977861
      1.70100     0.979004
      1.70000     0.980454
      1.69900     0.981937
      1.69800     0.983364
      1.69700     0.984542
      1.69600     0.985958
      1.69500     0.987090
      1.69400     0.988109
      1.69300     0.988925
      1.69200     0.989378
      1.69100     0.989729
      1.69000     0.989955
      1.68900     0.989853
      1.68800     0.989491
      1.68700     0.989038
      1.68600     0.988313
      1.68500     0.987475
      1.68400     0.986037
      1.68300     0.984202
      1.68200     0.982458
      1.68100     0.980329
      1.68000     0.978053
      1.67900     0.975573
      1.67800     0.973172
      1.67700     0.970760
      1.67600     0.967634
      1.67500     0.964917
      1.67400     0.961950
      1.67300     0.959209
      1.67200     0.956253
      1.67100     0.953434
      1.67000     0.950568
      1.66900     0.948032
      1.66800     0.945371
      1.66700     0.943321
      1.66600     0.940909
      1.66500     0.938950
      1.66400     0.937330
      1.66300     0.935767
      1.66200     0.934533
      1.66100     0.933718
      1.66000     0.933027
      1.65900     0.932653
      1.65800     0.932902
      1.65700     0.933253
      1.65600     0.934046
      1.65500     0.934737
      1.65400     0.935983
      1.65300     0.937738
      1.65200     0.939380
      1.65100     0.941146
      1.65000     0.943672
      1.64900     0.946243
      1.64800     0.948734
      1.64700     0.951565
      1.64600     0.954838
      1.64500     0.957680
      1.64400     0.961010
      1.64300     0.964237
      1.64200     0.967476
      1.64100     0.970749
      1.64000     0.973784
      1.63900     0.977113
      1.63800     0.980205
      1.63700     0.982911
      1.63600     0.985708
      1.63500     0.988189
      1.63400     0.990521
      1.63300     0.992447
      1.63200     0.994157
      1.63100     0.995765
      1.63000     0.997237
      1.62900     0.998313
      1.62800     0.999083
      1.62700     0.999604
      1.62600     0.999819
      1.62500      1.00000
      1.62400     0.999570
      1.62300     0.999298
      1.62200     0.998664
      1.62100     0.998437
      1.62000     0.997248
      1.61900     0.996557
      1.61800     0.995606
      1.61700     0.994632
      1.61600     0.993738
      1.61500     0.992605
      1.61400     0.991926
      1.61300     0.990804
      1.61200     0.989989
      1.61100     0.989242
      1.61000     0.988607
      1.60900     0.988087
      1.60800     0.987486
      1.60700     0.987373
      1.60600     0.986954
      1.60500     0.986490
      1.60400     0.986807
      1.60300     0.986750
      1.60200     0.986750
      1.60100     0.986773
      1.60000     0.987101
      1.59900     0.987498
      1.59800     0.987600
      1.59700     0.988030
      1.59600     0.988143
      1.59500     0.988109
      1.59400     0.988211
      1.59300     0.988041
      1.59200     0.987883
      1.59100     0.987350
      1.59000     0.987158
      1.58900     0.986694
      1.58800     0.985459
      1.58700     0.984814
      1.58600     0.983874
      1.58500     0.982028
      1.58400     0.980816
      1.58300     0.979208
      1.58200     0.977351
      1.58100     0.975335
      1.58000     0.973331
      1.57900     0.971553
      1.57800     0.969333
      1.57700     0.967034
      1.57600     0.965143
      1.57500     0.963207
      1.57400     0.961021
      1.57300     0.958960
      1.57200     0.957556
      1.57100     0.955959
      1.57000     0.954306
      1.56900     0.953139
      1.56800     0.952233
      1.56700     0.950931
      1.56600     0.950285
      1.56500     0.950308
      1.56400     0.950036
      1.56300     0.949640
      1.56200     0.950738
      1.56100     0.950818
      1.56000     0.951214
      1.55900     0.952244
      1.55800     0.952856
      1.55700     0.953796
      1.55600     0.954589
      1.55500     0.955495
      1.55400     0.955676
      1.55300     0.956412
      1.55200     0.956480
      1.55100     0.955948
      1.55000     0.955823
      1.54900     0.955053
      1.54800     0.953739
      1.54700     0.952448
      1.54600     0.950319
      1.54500     0.948054
      1.54400     0.945620
      1.54300     0.942573
      1.54200     0.939663
      1.54100     0.936503
      1.54000     0.933321
      1.53900     0.930218
      1.53800     0.927467
      1.53700     0.924715
      1.53600     0.922314
      1.53500     0.920445
      1.53400     0.919302
      1.53300     0.918362
      1.53200     0.917863
      1.53100     0.918418
      1.53000     0.919517
      1.52900     0.921000
      1.52800     0.923480
      1.52700     0.926379
      1.52600     0.929539
      1.52500     0.932959
      1.52400     0.936254
      1.52300     0.939448
      1.52200     0.941735
      1.52100     0.942868
      1.52000     0.942992
      1.51900     0.940773
      1.51800     0.936186
      1.51700     0.928882
      1.51600     0.917716
      1.51500     0.903062
      1.51400     0.884750
      1.51300     0.861886
      1.51200     0.835013
      1.51100     0.804448
      1.51000     0.770577
      1.50900     0.734485
      1.50800     0.695472
      1.50700     0.655644
      1.50600     0.614649
      1.50500     0.572477
      1.50400     0.531516
      1.50300     0.492163
      1.50200     0.452482
      1.50100     0.415145
      1.50000     0.379756
      1.49900     0.344764
      1.49800     0.313134
      1.49700     0.282875
      1.49600     0.254802
      1.49500     0.229016
      1.49400     0.204770
      1.49300     0.183083
      1.49200     0.162382
      1.49100     0.143878
      1.49000     0.127152
      1.48900     0.112204
      1.48800    0.0987679
      1.48700    0.0866122
      1.48600    0.0757610
      1.48500    0.0660684
      1.48400    0.0578468
      1.48300    0.0503465
      1.48200    0.0440739
      1.48100    0.0383856
      1.48000    0.0334379
      1.47900    0.0292286
      1.47800    0.0255141
      1.47700    0.0223421
      1.47600    0.0195948
      1.47500    0.0172427
      1.47400    0.0151726
      1.47300    0.0133357
      1.47200    0.0118432
      1.47100    0.0104614
      1.47000   0.00924194
      1.46900   0.00829679
      1.46800   0.00731960
      1.46700   0.00661861
      1.46600   0.00594129
      1.46500   0.00533555
      1.46400   0.00479661
      1.46300   0.00443525
      1.46200   0.00399336
      1.46100   0.00366393
      1.46000   0.00331027
      1.45900   0.00301198
      1.45800   0.00274699
      1.45700   0.00257304
      1.45600   0.00242447
      1.45500   0.00223002
      1.45400   0.00204419
      1.45300   0.00193457
      1.45200   0.00179471
      1.45100   0.00167501
      1.45000   0.00158555
      1.44900   0.00143617
      1.44800   0.00136358
      1.44700   0.00131715
      1.44600   0.00126959
      1.44500   0.00107886
      1.44400   0.00109351
      1.44300   0.00103613
      1.44200  0.000953807
      1.44100  0.000977804
      1.44000  0.000916199
      1.43900  0.000869519
      1.43800  0.000806951
      1.43700  0.000746908
      1.43600  0.000676402
      1.43500  0.000651012
      1.43400  0.000638148
      1.43300  0.000646018
      1.43200  0.000572239
      1.43100  0.000520509
      1.43000  0.000475041
      1.42900  0.000459470
      1.42800  0.000424703
      1.42700  0.000441248
      1.42600  0.000401465
      1.42500  0.000413175
      1.42400  0.000335251
      1.42300  0.000302161
      1.42200  0.000254156
      1.42100  0.000295581
      1.42000  0.000237475
      1.41900  0.000234463
      1.41800  0.000251948
      1.41700  0.000211814
      1.41600  0.000298979
      1.41500  0.000234383
      1.41400  0.000214441
      1.41300  0.000214418
      1.41200  0.000223976
      1.41100  0.000267225
      1.41000  0.000211349
      1.40900  0.000255458
      1.40800  0.000199142
      1.40700  0.000225075
      1.40600  0.000208813
      1.40500  0.000243205
      1.40400  0.000179097
      1.40300  0.000280474
      1.40200  0.000209413
      1.40100  0.000257304
      1.40000  0.000230533
      1.39900  0.000186164
      1.39800  0.000179505
      1.39700  0.000137061
      1.39600  0.000190388
      1.39500  0.000220670
      1.39400  0.000146494
      1.39300  0.000164681
      1.39200  0.000184522
      1.39100  0.000177138
      1.39000  0.000198405
      1.38900  0.000170241
      1.38800  0.000223988
      1.38700  0.000145894
      1.38600  0.000204634
      1.38500  0.000131580
      1.38400  0.000206480
      1.38300  0.000135702
      1.38200  0.000226015
      1.38100  0.000238743
      1.38000  0.000190784
      1.37900  0.000183446
      1.37800  0.000170513
      1.37700  0.000146267
      1.37600  0.000241495
      1.37500  0.000130334
      1.37400  0.000306011
      1.37300  0.000216117
      1.37200  0.000184748
      1.37100  0.000171816
      1.37000  0.000202482
      1.36900  0.000177523
      1.36800  0.000157830
      1.36700  0.000178293
      1.36600  0.000187715
      1.36500  0.000129043
      1.36400  0.000173480
      1.36300  0.000222595
      1.36200  0.000166402
      1.36100  0.000173231
      1.36000  8.99812e-05
      1.35900  0.000210149
      1.35800  0.000177274
      1.35700  0.000150005
      1.35600  0.000160129
      1.35500  0.000152134
      1.35400  0.000165655
      1.35300  0.000231813
      1.35200  0.000194453
      1.35100  0.000179086
      1.35000  0.000181770
      1.34900  0.000197115
      1.34800  0.000184907
      1.34700  0.000124411
      1.34600  0.000187489
      1.34500  0.000211485
      1.34400  0.000170366
      1.34300  0.000181589
      1.34200  0.000177852
      1.34100  0.000203230
      1.34000  0.000160231
      1.33900  0.000140798
      1.33800  0.000221406
      1.33700  0.000164511
      1.33600  0.000127038
      1.33500  0.000192698
      1.33400  0.000141262
      1.33300  0.000179935
      1.33200  0.000211950
      1.33100  0.000117175
      1.33000  9.38848e-05
      1.32900  0.000146041
      1.32800  0.000217000
      1.32700  0.000202799
      1.32600  0.000179199
      1.32500  0.000131919
      1.32400  0.000235856
      1.32300  0.000170207
      1.32200  0.000207839
      1.32100  0.000203343
      1.32000  0.000230171
      1.31900  0.000188553
      1.31800  0.000180671
      1.31700  0.000103318
      1.31600  0.000179312
      1.31500  0.000188474
      1.31400  0.000213025
      1.31300  0.000151443
      1.31200  0.000217442
      1.31100  0.000184261
      1.31000  0.000125351
      1.30900  0.000166504
      1.30800  0.000199844
      1.30700  0.000184352
      1.30600  0.000151896
      1.30500  0.000140945
      1.30400  0.000194555
      1.30300  0.000145384
      1.30200  0.000147604
      1.30100  0.000112682
      1.30000  0.000170083
      1.29900  0.000137989
      1.29800  0.000203060
      1.29700  0.000203479
      1.29600  0.000184295
      1.29500  0.000133040
      1.29400  0.000123358
      1.29300  0.000178508
      1.29200  0.000211519
      1.29100  0.000160887
      1.29000  0.000236784
      1.28900  0.000206412
      1.28800  0.000111426
      1.28700  0.000245867
      1.28600  0.000176221
      1.28500  0.000164738
      1.28400  0.000185099
      1.28300  0.000152621
      1.28200  0.000228144
      1.28100  0.000198077
      1.28000  0.000140549
      1.27900  0.000208496
      1.27800  0.000261109
      1.27700  0.000169539
      1.27600  0.000189708
      1.27500  0.000199311
      1.27400  0.000151873
      1.27300  0.000241994
      1.27200  0.000189686
      1.27100  0.000142723
      1.27000  0.000165372
      1.26900  0.000156539
      1.26800  0.000252288
      1.26700  0.000217193
      1.26600  0.000199957
      1.26500  0.000169528
      1.26400  0.000152337
      1.26300  0.000112762
      1.26200  0.000180626
      1.26100  0.000199674
      1.26000  0.000147298
      1.25900  0.000189946
      1.25800  0.000137661
      1.25700  0.000113891
      1.25600  0.000147275
      1.25500  0.000175892
      1.25400  0.000128318
      1.25300  0.000189754
      1.25200  0.000199798
      1.25100  0.000204917
      1.25000  0.000166538
      1.24900  0.000104733
      1.24800  0.000190286
      1.24700  0.000128431
      1.24600  0.000180411
      1.24500  0.000195042
      1.24400  0.000190195
      1.24300  0.000199855
      1.24200  0.000166753
      1.24100  0.000209583
      1.24000  0.000161986
      1.23900  0.000157218
      1.23800  0.000200070
      1.23700  0.000152451
      1.23600  0.000223738
      1.23500  0.000166674
      1.23400  0.000138035
      1.23300  0.000195235
      1.23200  0.000161861
      1.23100  0.000171408
      1.23000  0.000176142
      1.22900  0.000147570
      1.22800  0.000233410
      1.22700  0.000209583
      1.22600  0.000152371
      1.22500  0.000171431
      1.22400  0.000176277
      1.22300  0.000152394
      1.22200  0.000171544
      1.22100  0.000176300
      1.22000  0.000176345
      1.21900  0.000171634
      1.21800  0.000233659
      1.21700  0.000200353
      1.21600  0.000157399
      1.21500  0.000171770
      1.21400  0.000200444
      1.21300  0.000148000
      1.21200  0.000214939
      1.21100  0.000176753
      1.21000  0.000157649
      1.20900  0.000220013
      1.20800  0.000176991
      1.20700  7.65945e-05
      1.20600  0.000177127
      1.20500  0.000148136
      1.20400  0.000129156
      1.20300  0.000153798
      1.20200  0.000148510
      1.20100  0.000209130
      1.20000  0.000195654
      1.19900  0.000148453
      1.19800  0.000165293
      1.19700  0.000186843
      1.19600  0.000147660
      1.19500  0.000176436
      1.19400  0.000167127
      1.19300  0.000157547
      1.19200  0.000138363
      1.19100  0.000181339
      1.19000  0.000200297
      1.18900  0.000181634
      1.18800  0.000148204
      1.18700  0.000128952
      1.18600  0.000190897
      1.18500  0.000224282
      1.18400  0.000152666
      1.18300  0.000195676
      1.18200  0.000148419
      1.18100  0.000152032
      1.18000  0.000206185
      1.17900  0.000291663
      1.17800  0.000167546
      1.17700  0.000114513
      1.17600  0.000187024
      1.17500  0.000176674
      1.17400  0.000147876
      1.17300  0.000215381
      1.17200  0.000181226
      1.17100  0.000181974
      1.17000  0.000181215
      1.16900  0.000205687
      1.16800  0.000147638
      1.16700  0.000172348
      1.16600  0.000176504
      1.16500  0.000129371
      1.16400  0.000190761
      1.16300  0.000129496
      1.16200  0.000147740
      1.16100  0.000201169
      1.16000  0.000214894
      1.15900  0.000167784
      1.15800  0.000181917
      1.15700  0.000229774
      1.15600  0.000153345
      1.15500  0.000182302
      1.15400  0.000167252
      1.15300  0.000142689
      1.15200  0.000171532
      1.15100  0.000133901
      1.15000  0.000182302
      1.14900  0.000201135
      1.14800  0.000210206
      1.14700  0.000267157
      1.14600  0.000133267
      1.14500  0.000158045
      1.14400  0.000191577
      1.14300  0.000224701
      1.14200  0.000143663
      1.14100  0.000158475
      1.14000  0.000156154
      1.13900  0.000119224
      1.13800  0.000139507
      1.13700  0.000195484
      1.13600  0.000176742
      1.13500  0.000178248
      1.13400  0.000176719
      1.13300  0.000128941
      1.13200  0.000214294
      1.13100  0.000167490
      1.13000  9.60591e-05
      1.12900  0.000191033
      1.12800  0.000181917
      1.12700  0.000200716
      1.12600  0.000158068
      1.12500  0.000190558
      1.12400  0.000139303
      1.12300  0.000162156
      1.12200  0.000167943
      1.12100  0.000185145
      1.12000  0.000198179
      1.11900  0.000134943
      1.11800  0.000171917
      1.11700  0.000229888
      1.11600  0.000177251
      1.11500  0.000236943
      1.11400  0.000157818
      1.11300  0.000147015
      1.11200  0.000254099
      1.11100  9.96433e-05
      1.11000  0.000265707
      1.10900  0.000150050
      1.10800  0.000163232
      1.10700  0.000168373
      1.10600  0.000181951
      1.10500  0.000166119
      1.10400  0.000152247
      1.10300  0.000234316
      1.10200  0.000193695
      1.10100  0.000129734
      1.10000  0.000201101
      1.09900  0.000217884
      1.09800  0.000163945
      1.09700  0.000160695
      1.09600  0.000129201
      1.09500  0.000228970
      1.09400  0.000143289
      1.09300  0.000147592
      1.09200  0.000219911
      1.09100  8.47889e-05
      1.09000  0.000161805
      1.08900  0.000172280
      1.08800  0.000186469
      1.08700  0.000151692
      1.08600  0.000114717
      1.08500  0.000161340
      1.08400  0.000110685
      1.08300  0.000212652
      1.08200  0.000105555
      1.08100  0.000203468
      1.08000  0.000187817
      1.07900  0.000119100
      1.07800  0.000178327
      1.07700  0.000170060
      1.07600  0.000150458
      1.07500  0.000180966
      1.07400  0.000192358
      1.07300  0.000198598
      1.07200  0.000238324
      1.07100  0.000114264
      1.07000  0.000205042
      1.06900  0.000175836
      1.06800  0.000166935
      1.06700  0.000203728
      1.06600  0.000180751
      1.06500  0.000224327
      1.06400  0.000134581
      1.06300  0.000183729
      1.06200  0.000225109
      1.06100  0.000165055
      1.06000  0.000188270
      1.05900  0.000176028
      1.05800  0.000139767
      1.05700  0.000145407
      1.05600  0.000158826
      1.05500  0.000183593
      1.05400  0.000119757
      1.05300  0.000157037
      1.05200  0.000195993
      1.05100  0.000189980
      1.05000  0.000114581
      1.04900  0.000156867
      1.04800  0.000229095
      1.04700  0.000174817
      1.04600  0.000139292
      1.04500  0.000150627
      1.04400  0.000146845
      1.04300  0.000204849
      1.04200  0.000134581
      1.04100  0.000221089
      1.04000  0.000158611
      1.03900  0.000137185
      1.03800  0.000162394
      1.03700  0.000184703
      1.03600  0.000170864
      1.03500  0.000161997
      1.03400  0.000257689
      1.03300  0.000181657
      1.03200  0.000192313
      1.03100  0.000205008
      1.03000  0.000162212
      1.02900  0.000199538
      1.02800  0.000176685
      1.02700  0.000194249
      1.02600  0.000171770
      1.02500  0.000253261
      1.02400  0.000110083
      1.02300  0.000271913
      1.02200  0.000135283
      1.02100  0.000209288
      1.02000  0.000125566
      1.01900  0.000244564
      1.01800  0.000170638
      1.01700  0.000170581
      1.01600  0.000144037
      1.01500  0.000171079
      1.01400  0.000120391
      1.01300  0.000173141
      1.01200  0.000155554
      1.01100  0.000194261
      1.01000  0.000173571
      1.00900  0.000198598
      1.00800  0.000205495
      1.00700  0.000233387
      1.00600  0.000109669
      1.00500  0.000167999
      1.00400  0.000176787
      1.00300  0.000142564
      1.00200  0.000182710
      1.00100  0.000161318
      1.00000  0.000158385
     0.999000  0.000191260
     0.998000  0.000186549
     0.997000  0.000130300
     0.996000  0.000134218
     0.995000  0.000133414
     0.994000  0.000214282
     0.993000  0.000159721
     0.992000  0.000192268
     0.991000  0.000153583
     0.990000  0.000168169
     0.989000  0.000211587
     0.988000  0.000192732
     0.987000  0.000127288
     0.986000  0.000166301
     0.985000  0.000247758
     0.984000  0.000129824
     0.983000  0.000115125
     0.982000  0.000158215
     0.981000  0.000152711
     0.980000  0.000145928
     0.979000  0.000162292
     0.978000  0.000204917
     0.977000  0.000178520
     0.976000  0.000182846
     0.975000  0.000163175
     0.974000  0.000139631
     0.973000  0.000114536
     0.972000  0.000192868
     0.971000  0.000157932
     0.970000  0.000203388
     0.969000  0.000161827
     0.968000  0.000166855
     0.967000  0.000171657
     0.966000  0.000218076
     0.965000  0.000251676
     0.964000  0.000106346
     0.963000  0.000197862
     0.962000  0.000198711
     0.961000  0.000208179
     0.960000  0.000169981
     0.959000  0.000206276
     0.958000  0.000217940
     0.957000  0.000144138
     0.956000  0.000189244
     0.955000  0.000172586
     0.954000  0.000161182
     0.953000  0.000213241
     0.952000  0.000170060
     0.951000  0.000157784
     0.950000  0.000155769
     0.949000  0.000178157
     0.948000  0.000229004
     0.947000  0.000197488
     0.946000  0.000122022
     0.945000  0.000153198
     0.944000  0.000131602
     0.943000  0.000177874
     0.942000  0.000188825
     0.941000  0.000188247
     0.940000  0.000184997
     0.939000  0.000206525
     0.938000  0.000214973
     0.937000  0.000154568
     0.936000  0.000150514
     0.935000  0.000138250
     0.934000  0.000157830
     0.933000  0.000205178
     0.932000  0.000172178
     0.931000  0.000241722
     0.930000  0.000130889
     0.929000  0.000203581
     0.928000  0.000169460
     0.927000  0.000146007
     0.926000  0.000170434
     0.925000  0.000221836
     0.924000  0.000141387
     0.923000  0.000188587
     0.922000  0.000161408
     0.921000  0.000256987
     0.920000  0.000136585
     0.919000  0.000241858
     0.918000  0.000156335
     0.917000  0.000204532
     0.916000  0.000235641
     0.915000  0.000125985
     0.914000  0.000195767
     0.913000  0.000170819
     0.912000  0.000168214
     0.911000  0.000215483
     0.910000  0.000210410
     0.909000  0.000146494
     0.908000  0.000209787
     0.907000  0.000145361
     0.906000  0.000147694
     0.905000  0.000125328
     0.904000  0.000168237
     0.903000  0.000209141
     0.902000  0.000123834
     0.901000  0.000144795
     0.900000  0.000216683
     0.899000  0.000161238
     0.898000  0.000223319
     0.897000  0.000158430
     0.896000  0.000177670
     0.895000  0.000159019
     0.894000  0.000162767
     0.893000  0.000229605
     0.892000  0.000173616
     0.891000  0.000140866
     0.890000  0.000251653
     0.889000  0.000246535
     0.888000  0.000163084
     0.887000  0.000175043
     0.886000  0.000164976
     0.885000  0.000203400
     0.884000  0.000103490
     0.883000  0.000223818
     0.882000  0.000186209
     0.881000  0.000153051
     0.880000  0.000159846
     0.879000  0.000272592
     0.878000  0.000232436
     0.877000  0.000261540
     0.876000  0.000118511
     0.875000  0.000145486
     0.874000  0.000239106
     0.873000  0.000213580
     0.872000  0.000207295
     0.871000  0.000261959
     0.870000  0.000225709
     0.869000  0.000153855
     0.868000  0.000165304
     0.867000  0.000261041
     0.866000  0.000162971
     0.865000  0.000198439
     0.864000  0.000192177
     0.863000  0.000223399
     0.862000  0.000138250
     0.861000  0.000135328
     0.860000  0.000260419
     0.859000  0.000207737
     0.858000  0.000166652
     0.857000  0.000237905
     0.856000  0.000169177
     0.855000  0.000129518
     0.854000  0.000122645
     0.853000  0.000218756
     0.852000  0.000149880
     0.851000  0.000190727
     0.850000  0.000195484
     0.849000  0.000144456
     0.848000  0.000161612
     0.847000  8.58149e-05
     0.846000  0.000226683
     0.845000  0.000129632
     0.844000  0.000201101
     0.843000  0.000180377
     0.842000  0.000178305
     0.841000  0.000186254
     0.840000  0.000180626
     0.839000  0.000158690
     0.838000  0.000220432
     0.837000  0.000196775
     0.836000  0.000145486
     0.835000  0.000183004
     0.834000  0.000170196
     0.833000  0.000126325
     0.832000  0.000234214
     0.831000  0.000121874
     0.830000  0.000193502
     0.829000  0.000185824
     0.828000  0.000177500
     0.827000  0.000165496
     0.826000  0.000203683
     0.825000  0.000144580
     0.824000  0.000242379
     0.823000  0.000124807
     0.822000  0.000203547
     0.821000  0.000172846
     0.820000  0.000118262
     0.819000  0.000185575
     0.818000  0.000144727
     0.817000  0.000212165
     0.816000  0.000106164
     0.815000  0.000140265
     0.814000  0.000155225
     0.813000  0.000200297
     0.812000  0.000127220
     0.811000  0.000170094
     0.810000  0.000213490
     0.809000  0.000196945
     0.808000  0.000227396
     0.807000  0.000144172
     0.806000  0.000209311
     0.805000  0.000198745
     0.804000  0.000212799
     0.803000  0.000224678
     0.802000  0.000190490
     0.801000  0.000159302
     0.800000  0.000199991
     0.799     0.0
     