#http://www.gemini.edu/sciops/instruments/niri/filters/niri-J-G0202.dat
#Downloaded on 18 Feb 2013
#J       G0202   
#scanned warm
#Wavelength (nm) %T
#renormalized for astrofilt
      3.30100    0.0
      3.30000    0.0153107
      3.29900   0.00827950
      3.29800    0.0134394
      3.29700    0.0159972
      3.29600   0.00906389
      3.29500    0.0121801
      3.29400    0.0107415
      3.29300    0.0147806
      3.29200    0.0142351
      3.29100    0.0139946
      3.29000    0.0112751
      3.28900    0.0132535
      3.28800    0.0102181
      3.28700   0.00718260
      3.28600    0.0103426
      3.28500    0.0106852
      3.28400    0.0110062
      3.28300   0.00962606
      3.28200    0.0102793
      3.28100    0.0100461
      3.28000   0.00960857
      3.27900   0.00596010
      3.27800    0.0100055
      3.27700    0.0103446
      3.27600   0.00861988
      3.27500   0.00974783
      3.27400    0.0108317
      3.27300   0.00784456
      3.27200   0.00603990
      3.27100   0.00827425
      3.27000   0.00862021
      3.26900   0.00536962
      3.26800   0.00926359
      3.26700   0.00714390
      3.26600   0.00728775
      3.26500   0.00696300
      3.26400   0.00952561
      3.26300   0.00590228
      3.26200   0.00882702
      3.26100   0.00770290
      3.26000   0.00736110
      3.25900   0.00776105
      3.25800   0.00596098
      3.25700   0.00621238
      3.25600   0.00518304
      3.25500   0.00597420
      3.25400   0.00584577
      3.25300   0.00628365
      3.25200   0.00679784
      3.25100   0.00388665
      3.25000   0.00430038
      3.24900   0.00564661
      3.24800   0.00725583
      3.24700   0.00530043
      3.24600   0.00534525
      3.24500   0.00481522
      3.24400   0.00575329
      3.24300   0.00397530
      3.24200   0.00434618
      3.24100   0.00510827
      3.24000   0.00257157
      3.23900   0.00523867
      3.23800   0.00637744
      3.23700   0.00500038
      3.23600   0.00428125
      3.23500   0.00555927
      3.23400   0.00380696
      3.23300   0.00365262
      3.23200   0.00449243
      3.23100   0.00470624
      3.23000   0.00476395
      3.22900   0.00473017
      3.22800   0.00587539
      3.22700   0.00486167
      3.22600   0.00409870
      3.22500   0.00299568
      3.22400   0.00424059
      3.22300   0.00384118
      3.22200   0.00358452
      3.22100   0.00452391
      3.22000   0.00358736
      3.21900   0.00485260
      3.21800   0.00178237
      3.21700   0.00314598
      3.21600   0.00279325
      3.21500   0.00348451
      3.21400   0.00323889
      3.21300   0.00420932
      3.21200   0.00246171
      3.21100   0.00333224
      3.21000   0.00280975
      3.20900   0.00286692
      3.20800   0.00342439
      3.20700   0.00462076
      3.20600   0.00155632
      3.20500   0.00266765
      3.20400   0.00328524
      3.20300   0.00335454
      3.20200   0.00286178
      3.20100   0.00319331
      3.20000   0.00254227
      3.19900   0.00348593
      3.19800   0.00449790
      3.19700   0.00289949
      3.19600   0.00149729
      3.19500   0.00317976
      3.19400   0.00238586
      3.19300   0.00302301
      3.19200   0.00307110
      3.19100   0.00272416
      3.19000   0.00365459
      3.18900   0.00210603
      3.18800   0.00271509
      3.18700   0.00261300
      3.18600   0.00343499
      3.18500   0.00317888
      3.18400   0.00299863
      3.18300   0.00311658
      3.18200   0.00242586
      3.18100   0.00232891
      3.18000   0.00311997
      3.17900   0.00258775
      3.17800   0.00177155
      3.17700   0.00283478
      3.17600   0.00209750
      3.17500   0.00264721
      3.17400   0.00284123
      3.17300   0.00233907
      3.17200   0.00273138
      3.17100   0.00285653
      3.17000   0.00235744
      3.16900   0.00247931
      3.16800   0.00152003
      3.16700   0.00237460
      3.16600   0.00189419
      3.16500   0.00327168
      3.16400   0.00226190
      3.16300   0.00211904
      3.16200   0.00268427
      3.16100   0.00202372
      3.16000   0.00264415
      3.15900   0.00294584
      3.15800   0.00204274
      3.15700   0.00303110
      3.15600   0.00208296
      3.15500   0.00298748
      3.15400   0.00156047
      3.15300   0.00251670
      3.15200   0.00274493
      3.15100   0.00236662
      3.15000   0.00288495
      3.14900   0.00244958
      3.14800   0.00225676
      3.14700   0.00177625
      3.14600   0.00170093
      3.14500   0.00140723
      3.14400   0.00191091
      3.14300   0.00143980
      3.14200   0.00210155
      3.14100   0.00220113
      3.14000   0.00224638
      3.13900   0.00222386
      3.13800   0.00155162
      3.13700   0.00121758
      3.13600   0.00249615
      3.13500   0.00162278
      3.13400   0.00214133
      3.13300   0.00180642
      3.13200   0.00226135
      3.13100   0.00203826
      3.13000   0.00105016
      3.12900   0.00195322
      3.12800   0.00143401
      3.12700   0.00137356
      3.12600   0.00205400
      3.12500   0.00154637
      3.12400   0.00138733
      3.12300   0.00176313
      3.12200   0.00170006
      3.12100   0.00135148
      3.12000   0.00185910
      3.11900   0.00114150
      3.11800   0.00206548
      3.11700   0.00144625
      3.11600   0.00156900
      3.11500   0.00164683
      3.11400   0.00140897
      3.11300   0.00175056
      3.11200   0.00221905
      3.11100   0.00171853
      3.11000   0.00174892
      3.10900   0.00194731
      3.10800   0.00124971
      3.10700   0.00132240
      3.10600   0.00177100
      3.10500   0.00146472
      3.10400   0.00112303
      3.10300   0.00176247
      3.10200   0.00154386
      3.10100   0.00109112
      3.10000   0.00171285
      3.09900   0.00126633
      3.09800   0.00187386
      3.09700   0.00136121
      3.09600   0.00164978
      3.09500   0.00156146
      3.09400   0.00143575
      3.09300   0.00120074
      3.09200   0.00137400
      3.09100   0.00165175
      3.09000   0.00106025
      3.08900   0.00119517
      3.08800   0.00107803
      3.08700   0.00117331
      3.08600   0.00154681
      3.08500   0.00115483
      3.08400   0.00131420
      3.08300   0.00161076
      3.08200   0.00115713
      3.08100   0.00118107
      3.08000   0.00113811
      3.07900   0.00129202
      3.07800   0.00115177
      3.07700   0.00107725
      3.07600  0.000875838
      3.07500  0.000804919
      3.07400   0.00101621
      3.07300  0.000696081
      3.07200  0.000814112
      3.07100  0.000775745
      3.07000   0.00122424
      3.06900   0.00115472
      3.06800  0.000757676
      3.06700  0.000839318
      3.06600   0.00144690
      3.06500   0.00120151
      3.06400   0.00113461
      3.06300  0.000782904
      3.06200   0.00154091
      3.06100  0.000684746
      3.06000  0.000986872
      3.05900   0.00136569
      3.05800  0.000942187
      3.05700   0.00107101
      3.05600   0.00125135
      3.05500  0.000973799
      3.05400  0.000939280
      3.05300   0.00117057
      3.05200   0.00102829
      3.05100  0.000788075
      3.05000   0.00116740
      3.04900  0.000929081
      3.04800  0.000845516
      3.04700  0.000462393
      3.04600  0.000907318
      3.04500  0.000875641
      3.04400   0.00108855
      3.04300  0.000861092
      3.04200   0.00111931
      3.04100  0.000967590
      3.04000  0.000889534
      3.03900  0.000928469
      3.03800  0.000992447
      3.03700  0.000983090
      3.03600   0.00104669
      3.03500  0.000694802
      3.03400  0.000667497
      3.03300   0.00108966
      3.03200  0.000947970
      3.03100  0.000785090
      3.03000  0.000734951
      3.02900  0.000642619
      3.02800   0.00118041
      3.02700  0.000977439
      3.02600  0.000886058
      3.02500  0.000963830
      3.02400  0.000535246
      3.02300  0.000803837
      3.02200  0.000693239
      3.02100  0.000564497
      3.02000  0.000663584
      3.01900  0.000923550
      3.01800  0.000755053
      3.01700  0.000729005
      3.01600  0.000644051
      3.01500  0.000836356
      3.01400  0.000556036
      3.01300  0.000630890
      3.01200  0.000703241
      3.01100  0.000813587
      3.01000  0.000350418
      3.00900  0.000651112
      3.00800  0.000628169
      3.00700  0.000680450
      3.00600  0.000712062
      3.00500  0.000615073
      3.00400  0.000666131
      3.00300  0.000679128
      3.00200  0.000783068
      3.00100  0.000795912
      3.00000  0.000702356
      2.99900  0.000572935
      2.99800  0.000550965
      2.99700  0.000600394
      2.99600  0.000543280
      2.99500  0.000677991
      2.99400  0.000691108
      2.99300  0.000549085
      2.99200  0.000427556
      2.99100  0.000893764
      2.99000  0.000604842
      2.98900  0.000650117
      2.98800  0.000433000
      2.98700  0.000903317
      2.98600  0.000524731
      2.98500  0.000601935
      2.98400  0.000566563
      2.98300  0.000706717
      2.98200  0.000528797
      2.98100  0.000509657
      2.98000  0.000444084
      2.97900  0.000441231
      2.97800  0.000562147
      2.97700  0.000528742
      2.97600  0.000616932
      2.97500  0.000582718
      2.97400  0.000429021
      2.97300  0.000485719
      2.97200  0.000558124
      2.97100  0.000286998
      2.97000  0.000388894
      2.96900  0.000444729
      2.96800  0.000572706
      2.96700  0.000568782
      2.96600  0.000263267
      2.96500  0.000589627
      2.96400  0.000415675
      2.96300  0.000426933
      2.96200  0.000438892
      2.96100  0.000533005
      2.96000  0.000488189
      2.95900  0.000375788
      2.95800  0.000455310
      2.95700  0.000547631
      2.95600  0.000315844
      2.95500  0.000515035
      2.95400  0.000352080
      2.95300  0.000469454
      2.95200  0.000560103
      2.95100  0.000477499
      2.95000  0.000488539
      2.94900  0.000368629
      2.94800  0.000392928
      2.94700  0.000596491
      2.94600  0.000465453
      2.94500  0.000488299
      2.94400  0.000536361
      2.94300  0.000381778
      2.94200  0.000404252
      2.94100  0.000563644
      2.94000  0.000486298
      2.93900  0.000421238
      2.93800  0.000468241
      2.93700  0.000344275
      2.93600  0.000487446
      2.93500  0.000400765
      2.93400  0.000182686
      2.93300  0.000419697
      2.93200  0.000418517
      2.93100  0.000403902
      2.93000  0.000448511
      2.92900  0.000505143
      2.92800  0.000490550
      2.92700  0.000384402
      2.92600  0.000497502
      2.92500  0.000415292
      2.92400  0.000425064
      2.92300  0.000286561
      2.92200  0.000285183
      2.92100  0.000328874
      2.92000  0.000437580
      2.91900  0.000379669
      2.91800  0.000300104
      2.91700  0.000528808
      2.91600  0.000395212
      2.91500  0.000468339
      2.91400  0.000379833
      2.91300  0.000388840
      2.91200  0.000418549
      2.91100  0.000511188
      2.91000  0.000350199
      2.90900  0.000358146
      2.90800  0.000408078
      2.90700  0.000405771
      2.90600  0.000443920
      2.90500  0.000318916
      2.90400  0.000418287
      2.90300  0.000424955
      2.90200  0.000412406
      2.90100  0.000399519
      2.90000  0.000386643
      2.89900  0.000315013
      2.89800  0.000321987
      2.89700  0.000348385
      2.89600  0.000316423
      2.89500  0.000379199
      2.89400  0.000301109
      2.89300  0.000391081
      2.89200  0.000240455
      2.89100  0.000347358
      2.89000  0.000199738
      2.88900  0.000376149
      2.88800  0.000275630
      2.88700  0.000290037
      2.88600  0.000304695
      2.88500  0.000404810
      2.88400  0.000324206
      2.88300  0.000262677
      2.88200  0.000210056
      2.88100  0.000175439
      2.88000  0.000312434
      2.87900  0.000236782
      2.87800  0.000210778
      2.87700  0.000343914
      2.87600  0.000198645
      2.87500  0.000235656
      2.87400  0.000326141
      2.87300  0.000277401
      2.87200  0.000327321
      2.87100  0.000241351
      2.87000  0.000253801
      2.86900  0.000317746
      2.86800  0.000307045
      2.86700  0.000325900
      2.86600  0.000222856
      2.86500  0.000277193
      2.86400  0.000253430
      2.86300  0.000285741
      2.86200  0.000248543
      2.86100  0.000273575
      2.86000  0.000290911
      2.85900  0.000221348
      2.85800  0.000232180
      2.85700  0.000157873
      2.85600  0.000298235
      2.85500  0.000141695
      2.85400  0.000184150
      2.85300  0.000113571
      2.85200  0.000210996
      2.85100  0.000281839
      2.85000  0.000182248
      2.84900  0.000209914
      2.84800  0.000236957
      2.84700  0.000175941
      2.84600  0.000208493
      2.84500  0.000251604
      2.84400  0.000152790
      2.84300  0.000234235
      2.84200  0.000159939
      2.84100  0.000261015
      2.84000  0.000167656
      2.83900  0.000188916
      2.83800  0.000198546
      2.83700  0.000233066
      2.83600  0.000175034
      2.83500  0.000167667
      2.83400  0.000167306
      2.83300  0.000140449
      2.83200  0.000200918
      2.83100  0.000166104
      2.83000  0.000192305
      2.82900  0.000231284
      2.82800  0.000168268
      2.82700  0.000178838
      2.82600  0.000165830
      2.82500  0.000194108
      2.82400  0.000210800
      2.82300  0.000138886
      2.82200  0.000206394
      2.82100  0.000170706
      2.82000  0.000201487
      2.81900  0.000223545
      2.81800  0.000167186
      2.81700  0.000171897
      2.81600  0.000122818
      2.81500  0.000137454
      2.81400  0.000125966
      2.81300  0.000136809
      2.81200  0.000145620
      2.81100  0.000130579
      2.81000  0.000189802
      2.80900  0.000139826
      2.80800  0.000179603
      2.80700  0.000149893
      2.80600  0.000120151
      2.80500  0.000162803
      2.80400  8.19511e-05
      2.80300  0.000231054
      2.80200  0.000159797
      2.80100  0.000141444
      2.80000  0.000190829
      2.79900  0.000227699
      2.79800  0.000177658
      2.79700  0.000163535
      2.79600  0.000200700
      2.79500  0.000158638
      2.79400  0.000205957
      2.79300  0.000164169
      2.79200  0.000249757
      2.79100  0.000124283
      2.79000  0.000177351
      2.78900  0.000223578
      2.78800  0.000126436
      2.78700  0.000158102
      2.78600  0.000175712
      2.78500  9.90764e-05
      2.78400  0.000193092
      2.78300  0.000131103
      2.78200  0.000148134
      2.78100  0.000215708
      2.78000  0.000139225
      2.77900  7.79122e-05
      2.77800  0.000125070
      2.77700  0.000153763
      2.77600  0.000140886
      2.77500  0.000154965
      2.77400  0.000213959
      2.77300  0.000109887
      2.77200  0.000114587
      2.77100  0.000132492
      2.77000  0.000199563
      2.76900  0.000178838
      2.76800  0.000150265
      2.76700  0.000197595
      2.76600  0.000155315
      2.76500  0.000147587
      2.76400  0.000193201
      2.76300  0.000151970
      2.76200  0.000220244
      2.76100  0.000164552
      2.76000  0.000162398
      2.75900  0.000119255
      2.75800  0.000189288
      2.75700  0.000174870
      2.75600  0.000185101
      2.75500  0.000175865
      2.75400  0.000191321
      2.75300  0.000216768
      2.75200  0.000177330
      2.75100  0.000139782
      2.75000  0.000116303
      2.74900  0.000189550
      2.74800  0.000183910
      2.74700  0.000232574
      2.74600  0.000191299
      2.74500  0.000141848
      2.74400  0.000133421
      2.74300  0.000213237
      2.74200  0.000194327
      2.74100  0.000186730
      2.74000  0.000136798
      2.73900  9.41499e-05
      2.73800  0.000143280
      2.73700  0.000197606
      2.73600  0.000145729
      2.73500  0.000207564
      2.73400  0.000168957
      2.73300  0.000110630
      2.73200  0.000127529
      2.73100  0.000133060
      2.73000  0.000156135
      2.72900  0.000165043
      2.72800  0.000132524
      2.72700  0.000126491
      2.72600  0.000197486
      2.72500  0.000177111
      2.72400  0.000162595
      2.72300  0.000140231
      2.72200  0.000180729
      2.72100  0.000140886
      2.72000  0.000142526
      2.71900  0.000132393
      2.71800  0.000122260
      2.71700  0.000215161
      2.71600  0.000137039
      2.71500  0.000170476
      2.71400  0.000170017
      2.71300  0.000172291
      2.71200  0.000179253
      2.71100  0.000187277
      2.71000  0.000125430
      2.70900  0.000148177
      2.70800  0.000129682
      2.70700  0.000112609
      2.70600  0.000137181
      2.70500  0.000146887
      2.70400  0.000146909
      2.70300  0.000216965
      2.70200  0.000166891
      2.70100  0.000117003
      2.70000  0.000160332
      2.69900  0.000125474
      2.69800  0.000153063
      2.69700  0.000181352
      2.69600  0.000189299
      2.69500  0.000153599
      2.69400  0.000175143
      2.69300  0.000103711
      2.69200  0.000100336
      2.69100  0.000125223
      2.69000  0.000138744
      2.68900  0.000127759
      2.68800  0.000215216
      2.68700  0.000118588
      2.68600  0.000185965
      2.68500  9.51686e-05
      2.68400  9.63054e-05
      2.68300  0.000149631
      2.68200  0.000185637
      2.68100  0.000151642
      2.68000  0.000203476
      2.67900  0.000192764
      2.67800  0.000156474
      2.67700  0.000229557
      2.67600  0.000130284
      2.67500  0.000121014
      2.67400  0.000116445
      2.67300  0.000161546
      2.67200  0.000108440
      2.67100  0.000156528
      2.67000  0.000134601
      2.66900  0.000161108
      2.66800  0.000127584
      2.66700  0.000139717
      2.66600  0.000162037
      2.66500  0.000167098
      2.66400  0.000130415
      2.66300  0.000152659
      2.66200  0.000163229
      2.66100  0.000167437
      2.66000  0.000139192
      2.65900  0.000127168
      2.65800  0.000111701
      2.65700  0.000115112
      2.65600  0.000163972
      2.65500  0.000151599
      2.65400  0.000165448
      2.65300  0.000103572
      2.65200  0.000133803
      2.65100  0.000123518
      2.65000  0.000156550
      2.64900  0.000161720
      2.64800  0.000174302
      2.64700  0.000153129
      2.64600  0.000122403
      2.64500  9.87900e-05
      2.64400  0.000110619
      2.64300  0.000142056
      2.64200  0.000133104
      2.64100  0.000130120
      2.64000  0.000184522
      2.63900  0.000147292
      2.63800  0.000148276
      2.63700  0.000199443
      2.63600  0.000167175
      2.63500  0.000125507
      2.63400  0.000188020
      2.63300  0.000171788
      2.63200  0.000121954
      2.63100  0.000116205
      2.63000  0.000118555
      2.62900  0.000142614
      2.62800  9.44341e-05
      2.62700  0.000170159
      2.62600  0.000208657
      2.62500  0.000186533
      2.62400  0.000123102
      2.62300  0.000161611
      2.62200  0.000184522
      2.62100  0.000155107
      2.62000  0.000193299
      2.61900  0.000149052
      2.61800  0.000128207
      2.61700  0.000156856
      2.61600  0.000172509
      2.61500  0.000161240
      2.61400  0.000167700
      2.61300  0.000167732
      2.61200  0.000177592
      2.61100  0.000119648
      2.61000  0.000118784
      2.60900  0.000145936
      2.60800  0.000156233
      2.60700  0.000193737
      2.60600  0.000191813
      2.60500  0.000176761
      2.60400  0.000124709
      2.60300  0.000105845
      2.60200  0.000148308
      2.60100  0.000175592
      2.60000  0.000133465
      2.59900  0.000194294
      2.59800  0.000187758
      2.59700  0.000142788
      2.59600  0.000201257
      2.59500  0.000175504
      2.59400  0.000208471
      2.59300  0.000181374
      2.59200  0.000168388
      2.59100  0.000139302
      2.59000  0.000173908
      2.58900  0.000139914
      2.58800  0.000124796
      2.58700  0.000140679
      2.58600  0.000139389
      2.58500  0.000180707
      2.58400  0.000203028
      2.58300  0.000175635
      2.58200  0.000158365
      2.58100  0.000146811
      2.58000  0.000166771
      2.57900  0.000114281
      2.57800  0.000102404
      2.57700  0.000256599
      2.57600  0.000165754
      2.57500  0.000144308
      2.57400  0.000107879
      2.57300  0.000104166
      2.57200  0.000176379
      2.57100  0.000137826
      2.57000  0.000168825
      2.56900  0.000194644
      2.56800  0.000134142
      2.56700  0.000103382
      2.56600  0.000237973
      2.56500  0.000147937
      2.56400  0.000231404
      2.56300  0.000113264
      2.56200  0.000162737
      2.56100  0.000138099
      2.56000  0.000121408
      2.55900  0.000155818
      2.55800  0.000136820
      2.55700  0.000234027
      2.55600  0.000136197
      2.55500  0.000182412
      2.55400  0.000108593
      2.55300  0.000165787
      2.55200  0.000201366
      2.55100  0.000142329
      2.55000  0.000150046
      2.54900  0.000123004
      2.54800  0.000189987
      2.54700  0.000128644
      2.54600  0.000121758
      2.54500  0.000119659
      2.54400  0.000115899
      2.54300  6.69323e-05
      2.54200  0.000175646
      2.54100  0.000151937
      2.54000  0.000132732
      2.53900  0.000209936
      2.53800  0.000173613
      2.53700  0.000167689
      2.53600  0.000156037
      2.53500  0.000119091
      2.53400  0.000158977
      2.53300  0.000113374
      2.53200  8.16199e-05
      2.53100  0.000185823
      2.53000  7.81407e-05
      2.52900  0.000191452
      2.52800  0.000119418
      2.52700  0.000125988
      2.52600  0.000152397
      2.52500  0.000148199
      2.52400  0.000165470
      2.52300  0.000174356
      2.52200  0.000103453
      2.52100  0.000148571
      2.52000  0.000152692
      2.51900  0.000130841
      2.51800  7.08783e-05
      2.51700  0.000175340
      2.51600  0.000196502
      2.51500  0.000158113
      2.51400  0.000137094
      2.51300  0.000116500
      2.51200  0.000152309
      2.51100  0.000146964
      2.51000  9.45128e-05
      2.50900  0.000134962
      2.50800  0.000217883
      2.50700  0.000158048
      2.50600  0.000115713
      2.50500  0.000140897
      2.50400  0.000178488
      2.50300  0.000135771
      2.50200  0.000124928
      2.50100  0.000188271
      2.50000  0.000151391
      2.49900  0.000147784
      2.49800  9.68771e-05
      2.49700  0.000122260
      2.49600  0.000197901
      2.49500  0.000121670
      2.49400  0.000149708
      2.49300  0.000117965
      2.49200  0.000105983
      2.49100  0.000214669
      2.49000  0.000129180
      2.48900  0.000188577
      2.48800  0.000140034
      2.48700  0.000169274
      2.48600  9.54779e-05
      2.48500  0.000238050
      2.48400  0.000147784
      2.48300  0.000129464
      2.48200  0.000165350
      2.48100  0.000147751
      2.48000  0.000151140
      2.47900  0.000120512
      2.47800  0.000130196
      2.47700  0.000148024
      2.47600  0.000175406
      2.47500  0.000165623
      2.47400  0.000111308
      2.47300  0.000216538
      2.47200  0.000121703
      2.47100  0.000157261
      2.47000  0.000131694
      2.46900  0.000139192
      2.46800  0.000178915
      2.46700  0.000153074
      2.46600  0.000116817
      2.46500  0.000178455
      2.46400  0.000148538
      2.46300  0.000170006
      2.46200  0.000134219
      2.46100  0.000168640
      2.46000  0.000158146
      2.45900  0.000134678
      2.45800  9.89310e-05
      2.45700  9.19014e-05
      2.45600  0.000183254
      2.45500  0.000183352
      2.45400  0.000120151
      2.45300  0.000143269
      2.45200  0.000174477
      2.45100  0.000159895
      2.45000  0.000179778
      2.44900  0.000135028
      2.44800  0.000231295
      2.44700  0.000166322
      2.44600  0.000137564
      2.44500  0.000133749
      2.44400  0.000114139
      2.44300  0.000221370
      2.44200  0.000105075
      2.44100  0.000137738
      2.44000  7.93977e-05
      2.43900  0.000178609
      2.43800  0.000123813
      2.43700  0.000165524
      2.43600  0.000123561
      2.43500  0.000184118
      2.43400  0.000113374
      2.43300  0.000170946
      2.43200  0.000203684
      2.43100  0.000168618
      2.43000  0.000124381
      2.42900  9.80904e-05
      2.42800  0.000171449
      2.42700  0.000133027
      2.42600  0.000205706
      2.42500  0.000151686
      2.42400  0.000150353
      2.42300  0.000155534
      2.42200  0.000182019
      2.42100  0.000231382
      2.42000  0.000152309
      2.41900  0.000156791
      2.41800  0.000181002
      2.41700  0.000195901
      2.41600  0.000217150
      2.41500  0.000129322
      2.41400  0.000181778
      2.41300  0.000111013
      2.41200  0.000164508
      2.41100  0.000157042
      2.41000  0.000154375
      2.40900  0.000106887
      2.40800  0.000178226
      2.40700  0.000194917
      2.40600  0.000194873
      2.40500  0.000178926
      2.40400  0.000131639
      2.40300  0.000168399
      2.40200  0.000161928
      2.40100  0.000191955
      2.40000  0.000177668
      2.39900  0.000160048
      2.39800  0.000116096
      2.39700  0.000173416
      2.39600  0.000141247
      2.39500  0.000134120
      2.39400  0.000125911
      2.39300  0.000117298
      2.39200  9.65699e-05
      2.39100  0.000132131
      2.39000  0.000128775
      2.38900  0.000142351
      2.38800  0.000128185
      2.38700  0.000150954
      2.38600  0.000172017
      2.38500  0.000159108
      2.38400  0.000110357
      2.38300  0.000173362
      2.38200  0.000140821
      2.38100  0.000132437
      2.38000  0.000182281
      2.37900  0.000196677
      2.37800  0.000162595
      2.37700  0.000155326
      2.37600  0.000128130
      2.37500  0.000182653
      2.37400  0.000120020
      2.37300  0.000128742
      2.37200  0.000145488
      2.37100  0.000168334
      2.37000  0.000173165
      2.36900  0.000177319
      2.36800  0.000155293
      2.36700  0.000165765
      2.36600  0.000115276
      2.36500  0.000191113
      2.36400  0.000122501
      2.36300  0.000160638
      2.36200  0.000176488
      2.36100  0.000175045
      2.36000  0.000161677
      2.35900  0.000131224
      2.35800  0.000222408
      2.35700  0.000164147
      2.35600  0.000158540
      2.35500  0.000107185
      2.35400  0.000233262
      2.35300  0.000163120
      2.35200  0.000154845
      2.35100  0.000177690
      2.35000  0.000114500
      2.34900  0.000180412
      2.34800  0.000137225
      2.34700  0.000132109
      2.34600  0.000127387
      2.34500  9.20369e-05
      2.34400  0.000107408
      2.34300  0.000181614
      2.34200  0.000153654
      2.34100  0.000158146
      2.34000  0.000215937
      2.33900  0.000110073
      2.33800  0.000154244
      2.33700  0.000176543
      2.33600  0.000146472
      2.33500  0.000177625
      2.33400  0.000201585
      2.33300  0.000147991
      2.33200  0.000115691
      2.33100  0.000125813
      2.33000  0.000164180
      2.32900  0.000101025
      2.32800  0.000215063
      2.32700  0.000159895
      2.32600  0.000163907
      2.32500  0.000163983
      2.32400  0.000217489
      2.32300  0.000132164
      2.32200  0.000137935
      2.32100  0.000136645
      2.32000  0.000137542
      2.31900  0.000127704
      2.31800  0.000150571
      2.31700  0.000158824
      2.31600  0.000168563
      2.31500  0.000161108
      2.31400  0.000222998
      2.31300  0.000116566
      2.31200  0.000148636
      2.31100  0.000123364
      2.31000  0.000169503
      2.30900  0.000151500
      2.30800  0.000191627
      2.30700  0.000140952
      2.30600  0.000121780
      2.30500  0.000137301
      2.30400  0.000175788
      2.30300  0.000187156
      2.30200  0.000211608
      2.30100  0.000108919
      2.30000  0.000158343
      2.29900  0.000164289
      2.29800  0.000222266
      2.29700  0.000211565
      2.29600  0.000152932
      2.29500  0.000181199
      2.29400  0.000182358
      2.29300  0.000198120
      2.29200  0.000198415
      2.29100  0.000165962
      2.29000  0.000142963
      2.28900  0.000206231
      2.28800  0.000207389
      2.28700  0.000135880
      2.28600  0.000119670
      2.28500  0.000181735
      2.28400  0.000124971
      2.28300  0.000140635
      2.28200  0.000138974
      2.28100  0.000127715
      2.28000  0.000151183
      2.27900  0.000145412
      2.27800  0.000159163
      2.27700  0.000167361
      2.27600  0.000130830
      2.27500  0.000112598
      2.27400  8.61278e-05
      2.27300  0.000260239
      2.27200  0.000113658
      2.27100  0.000214735
      2.27000  0.000164967
      2.26900  0.000132667
      2.26800  0.000199672
      2.26700  0.000150582
      2.26600  0.000146002
      2.26500  0.000137411
      2.26400  0.000121211
      2.26300  0.000124928
      2.26200  0.000162234
      2.26100  0.000134798
      2.26000  0.000158529
      2.25900  0.000189813
      2.25800  0.000159206
      2.25700  0.000177767
      2.25600  0.000157403
      2.25500  0.000158715
      2.25400  0.000109504
      2.25300  0.000151282
      2.25200  0.000206722
      2.25100  0.000123321
      2.25000  0.000123583
      2.24900  0.000173843
      2.24800  0.000136678
      2.24700  0.000221031
      2.24600  0.000181593
      2.24500  0.000161065
      2.24400  0.000113931
      2.24300  0.000151489
      2.24200  0.000137323
      2.24100  0.000137476
      2.24000  0.000171766
      2.23900  0.000146221
      2.23800  0.000101749
      2.23700  0.000187594
      2.23600  0.000176422
      2.23500  0.000138285
      2.23400  0.000119593
      2.23300  0.000154889
      2.23200  0.000132634
      2.23100  0.000169219
      2.23000  0.000187670
      2.22900  0.000164825
      2.22800  0.000198765
      2.22700  0.000153850
      2.22600  0.000106575
      2.22500  0.000177002
      2.22400  0.000176466
      2.22300  0.000111417
      2.22200  0.000152965
      2.22100  0.000173110
      2.22000  0.000145576
      2.21900  8.44073e-05
      2.21800  0.000137695
      2.21700  0.000136591
      2.21600  0.000185298
      2.21500  0.000174280
      2.21400  0.000213237
      2.21300  0.000110903
      2.21200  0.000180696
      2.21100  0.000100956
      2.21000  0.000136470
      2.20900  0.000169886
      2.20800  0.000175231
      2.20700  0.000164300
      2.20600  0.000185451
      2.20500  0.000132951
      2.20400  0.000166475
      2.20300  0.000148385
      2.20200  0.000144865
      2.20100  0.000174444
      2.20000  0.000172291
      2.19900  0.000194360
      2.19800  0.000123583
      2.19700  0.000128021
      2.19600  0.000204165
      2.19500  0.000160387
      2.19400  8.80735e-05
      2.19300  8.92933e-05
      2.19200  0.000135585
      2.19100  0.000160551
      2.19000  0.000126447
      2.18900  0.000180368
      2.18800  0.000103679
      2.18700  0.000138821
      2.18600  0.000112423
      2.18500  0.000179275
      2.18400  0.000178762
      2.18300  0.000190698
      2.18200  0.000120861
      2.18100  0.000161382
      2.18000  0.000154812
      2.17900  0.000194863
      2.17800  0.000138121
      2.17700  0.000170520
      2.17600  0.000130612
      2.17500  0.000138744
      2.17400  0.000117560
      2.17300  0.000170115
      2.17200  0.000138602
      2.17100  0.000146756
      2.17000  0.000129835
      2.16900  0.000151380
      2.16800  0.000116194
      2.16700  0.000156091
      2.16600  0.000173591
      2.16500  0.000143477
      2.16400  0.000146603
      2.16300  0.000120610
      2.16200  0.000147456
      2.16100  0.000147303
      2.16000  0.000169306
      2.15900  0.000142701
      2.15800  0.000102392
      2.15700  0.000152189
      2.15600  0.000160977
      2.15500  0.000169033
      2.15400  0.000133902
      2.15300  0.000169831
      2.15200  0.000195617
      2.15100  0.000152233
      2.15000  0.000177811
      2.14900  0.000116074
      2.14800  0.000137411
      2.14700  0.000152069
      2.14600  0.000142406
      2.14500  8.42969e-05
      2.14400  0.000130994
      2.14300  0.000161753
      2.14200  0.000103908
      2.14100  0.000197289
      2.14000  0.000166803
      2.13900  0.000161699
      2.13800  0.000144089
      2.13700  0.000114117
      2.13600  0.000159972
      2.13500  0.000116281
      2.13400  0.000138121
      2.13300  0.000146472
      2.13200  0.000150670
      2.13100  0.000152047
      2.13000  0.000182751
      2.12900  0.000151937
      2.12800  0.000129617
      2.12700  0.000220921
      2.12600  0.000187156
      2.12500  0.000178969
      2.12400  0.000178576
      2.12300  0.000133650
      2.12200  0.000178226
      2.12100  0.000178871
      2.12000  0.000169591
      2.11900  0.000156922
      2.11800  0.000174706
      2.11700  0.000219358
      2.11600  0.000160901
      2.11500  0.000129234
      2.11400  0.000174739
      2.11300  0.000129814
      2.11200  0.000124326
      2.11100  0.000138449
      2.11000  0.000170913
      2.10900  0.000120260
      2.10800  0.000183659
      2.10700  0.000124949
      2.10600  0.000142832
      2.10500  7.10477e-05
      2.10400  0.000144472
      2.10300  0.000238290
      2.10200  0.000156572
      2.10100  0.000170760
      2.10000  0.000200776
      2.09900  0.000186085
      2.09800  0.000195081
      2.09700  0.000145554
      2.09600  0.000208723
      2.09500  0.000131125
      2.09400  0.000160868
      2.09300  0.000177854
      2.09200  0.000187725
      2.09100  0.000120982
      2.09000  0.000165415
      2.08900  0.000156375
      2.08800  0.000177789
      2.08700  0.000134503
      2.08600  0.000138668
      2.08500  0.000170050
      2.08400  0.000124993
      2.08300  0.000254971
      2.08200  0.000169525
      2.08100  0.000188698
      2.08000  0.000197409
      2.07900  0.000206285
      2.07800  0.000174619
      2.07700  0.000147445
      2.07600  0.000192917
      2.07500  0.000138919
      2.07400  0.000178357
      2.07300  0.000138099
      2.07200  0.000153337
      2.07100  0.000192348
      2.07000  0.000147959
      2.06900  0.000160300
      2.06800  0.000143149
      2.06700  0.000178412
      2.06600  0.000162387
      2.06500  0.000134011
      2.06400  0.000143521
      2.06300  0.000172422
      2.06200  0.000106694
      2.06100  0.000165371
      2.06000  0.000167175
      2.05900  0.000141674
      2.05800  0.000167547
      2.05700  0.000139127
      2.05600  0.000157621
      2.05500  0.000101215
      2.05400  0.000175264
      2.05300  0.000204482
      2.05200  0.000143532
      2.05100  0.000160791
      2.05000  0.000147828
      2.04900  0.000161240
      2.04800  0.000183363
      2.04700  0.000198011
      2.04600  0.000130393
      2.04500  0.000206362
      2.04400  0.000156190
      2.04300  0.000130262
      2.04200  0.000151861
      2.04100  0.000144373
      2.04000  0.000197016
      2.03900  0.000171372
      2.03800  0.000147970
      2.03700  0.000146811
      2.03600  0.000164224
      2.03500  0.000171230
      2.03400  0.000174684
      2.03300  0.000121288
      2.03200  9.21178e-05
      2.03100  0.000183276
      2.03000  0.000110586
      2.02900  0.000181035
      2.02800  0.000106374
      2.02700  0.000167721
      2.02600  0.000128742
      2.02500  0.000112346
      2.02400  0.000161393
      2.02300  0.000119276
      2.02200  0.000183757
      2.02100  0.000165339
      2.02000  0.000152604
      2.01900  0.000130262
      2.01800  0.000108335
      2.01700  0.000188730
      2.01600  0.000111833
      2.01500  0.000179975
      2.01400  0.000175078
      2.01300  0.000112051
      2.01200  0.000170181
      2.01100  0.000153293
      2.01000  0.000197606
      2.00900  0.000206318
      2.00800  0.000112292
      2.00700  0.000144111
      2.00600  0.000143532
      2.00500  0.000192972
      2.00400  0.000192786
      2.00300  0.000139105
      2.00200  0.000126021
      2.00100  0.000202711
      2.00000  0.000165120
      1.99900  0.000175340
      1.99800  0.000181811
      1.99700  0.000172192
      1.99600  0.000142154
      1.99500  0.000111658
      1.99400  0.000147456
      1.99300  0.000197562
      1.99200  0.000196491
      1.99100  0.000107492
      1.99000  0.000161414
      1.98900  0.000134732
      1.98800  0.000201596
      1.98700  0.000183943
      1.98600  0.000150932
      1.98500  0.000135662
      1.98400  0.000111931
      1.98300  0.000184074
      1.98200  0.000192480
      1.98100  8.82429e-05
      1.98000  0.000124545
      1.97900  0.000202285
      1.97800  0.000134284
      1.97700  0.000179199
      1.97600  0.000152626
      1.97500  9.82882e-05
      1.97400  0.000152724
      1.97300  0.000152681
      1.97200  0.000116369
      1.97100  0.000134907
      1.97000  0.000205684
      1.96900  0.000156015
      1.96800  0.000116828
      1.96700  0.000220364
      1.96600  0.000139050
      1.96500  0.000151861
      1.96400  0.000198393
      1.96300  0.000139083
      1.96200  0.000228223
      1.96100  0.000119757
      1.96000  0.000167711
      1.95900  0.000174367
      1.95800  0.000159261
      1.95700  0.000134328
      1.95600  0.000168454
      1.95500  0.000159283
      1.95400  0.000182238
      1.95300  0.000212057
      1.95200  0.000141138
      1.95100  0.000162628
      1.95000  0.000134743
      1.94900  0.000125747
      1.94800  0.000103098
      1.94700  0.000143816
      1.94600  0.000205979
      1.94500  0.000175920
      1.94400  0.000139334
      1.94300  0.000124917
      1.94200  0.000170738
      1.94100  0.000220747
      1.94000  0.000130765
      1.93900  0.000184096
      1.93800  0.000125594
      1.93700  0.000152998
      1.93600  0.000197027
      1.93500  0.000156856
      1.93400  0.000116675
      1.93300  0.000207050
      1.93200  0.000189179
      1.93100  8.59441e-05
      1.93000  0.000158507
      1.92900  0.000130655
      1.92800  0.000152320
      1.92700  0.000161218
      1.92600  0.000157359
      1.92500  9.89157e-05
      1.92400  0.000193442
      1.92300  0.000166727
      1.92200  0.000191889
      1.92100  0.000135607
      1.92000  0.000146177
      1.91900  0.000153665
      1.91800  0.000140679
      1.91700  0.000145554
      1.91600  0.000189933
      1.91500  0.000196076
      1.91400  0.000194305
      1.91300  0.000162234
      1.91200  0.000181461
      1.91100  0.000181855
      1.91000  0.000203137
      1.90900  0.000215653
      1.90800  0.000145379
      1.90700  0.000190884
      1.90600  0.000154823
      1.90500  0.000112423
      1.90400  0.000202394
      1.90300  7.58102e-05
      1.90200  0.000177439
      1.90100  0.000136121
      1.90000  0.000137279
      1.89900  0.000191485
      1.89800  0.000146243
      1.89700  0.000149281
      1.89600  0.000167044
      1.89500  8.08952e-05
      1.89400  7.29016e-05
      1.89300  0.000179308
      1.89200  0.000141346
      1.89100  0.000143619
      1.89000  0.000193496
      1.88900  0.000205072
      1.88800  0.000129125
      1.88700  0.000165273
      1.88600  0.000114030
      1.88500  0.000178040
      1.88400  0.000145029
      1.88300  0.000213653
      1.88200  0.000155020
      1.88100  0.000193398
      1.88000  0.000175023
      1.87900  0.000126567
      1.87800  0.000145696
      1.87700  0.000146920
      1.87600  0.000172651
      1.87500  0.000149172
      1.87400  0.000183101
      1.87300  0.000161032
      1.87200  0.000177319
      1.87100  0.000188337
      1.87000  0.000102043
      1.86900  0.000215751
      1.86800  0.000132557
      1.86700  0.000150965
      1.86600  0.000179264
      1.86500  0.000180948
      1.86400  0.000156714
      1.86300  0.000134929
      1.86200  8.18724e-05
      1.86100  0.000158846
      1.86000  0.000178128
      1.85900  0.000147642
      1.85800  0.000102412
      1.85700  0.000143958
      1.85600  0.000218090
      1.85500  0.000122260
      1.85400  0.000100930
      1.85300  0.000206941
      1.85200  0.000161469
      1.85100  0.000123048
      1.85000  0.000111636
      1.84900  0.000138187
      1.84800  0.000111647
      1.84700  0.000219992
      1.84600  0.000142144
      1.84500  0.000164759
      1.84400  0.000191780
      1.84300  0.000254162
      1.84200  0.000184872
      1.84100  0.000159851
      1.84000  0.000190130
      1.83900  0.000128939
      1.83800  0.000197060
      1.83700  0.000149085
      1.83600  0.000159425
      1.83500  0.000200842
      1.83400  0.000139476
      1.83300  9.53686e-05
      1.83200  0.000141335
      1.83100  0.000132142
      1.83000  0.000194250
      1.82900  0.000131158
      1.82800  0.000208089
      1.82700  0.000190239
      1.82600  0.000186435
      1.82500  0.000127923
      1.82400  0.000107683
      1.82300  0.000148407
      1.82200  0.000136328
      1.82100  0.000153938
      1.82000  8.61540e-05
      1.81900  0.000191376
      1.81800  0.000140810
      1.81700  0.000157796
      1.81600  0.000141794
      1.81500  0.000241285
      1.81400  6.58348e-05
      1.81300  9.93332e-05
      1.81200  0.000135902
      1.81100  0.000150877
      1.81000  0.000149762
      1.80900  0.000159272
      1.80800  0.000235416
      1.80700  0.000195223
      1.80600  0.000163469
      1.80500  0.000185320
      1.80400  0.000175909
      1.80300  0.000167208
      1.80200  0.000123048
      1.80100  0.000199300
      1.80000  0.000221446
      1.79900  0.000176871
      1.79800  0.000125212
      1.79700  0.000196109
      1.79600  0.000205389
      1.79500  0.000190403
      1.79400  0.000160868
      1.79300  0.000147511
      1.79200  0.000135541
      1.79100  0.000182511
      1.79000  0.000195092
      1.78900  0.000145368
      1.78800  5.41488e-05
      1.78700  0.000154790
      1.78600  0.000127234
      1.78500  0.000136164
      1.78400  0.000185681
      1.78300  0.000190818
      1.78200  0.000181680
      1.78100  0.000198972
      1.78000  0.000172072
      1.77900  0.000186905
      1.77800  0.000185276
      1.77700  0.000146100
      1.77600  0.000146024
      1.77500  0.000208220
      1.77400  0.000193955
      1.77300  0.000118118
      1.77200  0.000198743
      1.77100  0.000178193
      1.77000  0.000168071
      1.76900  0.000129989
      1.76800  0.000137345
      1.76700  0.000163841
      1.76600  0.000162442
      1.76500  0.000159469
      1.76400  0.000177264
      1.76300  0.000141575
      1.76200  0.000126928
      1.76100  0.000163120
      1.76000  0.000114347
      1.75900  0.000168771
      1.75800  0.000171733
      1.75700  0.000127420
      1.75600  0.000126862
      1.75500  0.000181177
      1.75400  0.000138066
      1.75300  0.000206023
      1.75200  0.000205301
      1.75100  0.000168049
      1.75000  0.000156638
      1.74900  0.000180434
      1.74800  0.000147543
      1.74700  0.000131420
      1.74600  0.000123222
      1.74500  0.000157764
      1.74400  0.000104838
      1.74300  0.000200284
      1.74200  0.000135913
      1.74100  0.000122884
      1.74000  0.000168465
      1.73900  0.000127759
      1.73800  0.000113745
      1.73700  0.000141597
      1.73600  0.000126906
      1.73500  0.000127223
      1.73400  0.000199650
      1.73300  0.000160059
      1.73200  0.000211751
      1.73100  0.000178171
      1.73000  9.92130e-05
      1.72900  0.000179275
      1.72800  0.000162923
      1.72700  0.000117112
      1.72600  0.000142974
      1.72500  0.000176094
      1.72400  0.000125944
      1.72300  0.000164049
      1.72200  0.000194928
      1.72100  0.000186774
      1.72000  0.000154933
      1.71900  0.000128524
      1.71800  0.000204875
      1.71700  0.000145346
      1.71600  0.000145751
      1.71500  0.000151336
      1.71400  0.000172859
      1.71300  0.000181614
      1.71200  0.000154572
      1.71100  0.000229021
      1.71000  0.000154288
      1.70900  0.000146319
      1.70800  0.000132459
      1.70700  0.000132076
      1.70600  0.000140482
      1.70500  0.000123058
      1.70400  0.000198382
      1.70300  0.000182008
      1.70200  0.000205750
      1.70100  0.000140187
      1.70000  0.000130295
      1.69900  0.000146767
      1.69800  0.000194841
      1.69700  0.000154779
      1.69600  0.000136689
      1.69500  0.000192403
      1.69400  0.000191266
      1.69300  0.000140668
      1.69200  0.000174269
      1.69100  0.000153708
      1.69000  0.000159130
      1.68900  0.000146756
      1.68800  0.000145281
      1.68700  0.000200230
      1.68600  0.000152364
      1.68500  0.000141367
      1.68400  0.000158179
      1.68300  0.000178980
      1.68200  0.000166771
      1.68100  0.000125004
      1.68000  0.000194239
      1.67900  0.000201093
      1.67800  0.000195650
      1.67700  0.000182850
      1.67600  0.000173154
      1.67500  0.000251090
      1.67400  0.000191747
      1.67300  0.000173580
      1.67200  0.000164016
      1.67100  0.000186216
      1.67000  0.000151424
      1.66900  0.000183014
      1.66800  0.000118129
      1.66700  0.000154473
      1.66600  0.000114860
      1.66500  0.000149139
      1.66400  0.000254096
      1.66300  0.000104902
      1.66200  0.000134252
      1.66100  0.000144013
      1.66000  0.000160660
      1.65900  0.000132634
      1.65800  0.000164027
      1.65700  0.000127354
      1.65600  0.000191518
      1.65500  0.000196404
      1.65400  0.000154342
      1.65300  0.000108566
      1.65200  0.000168629
      1.65100  0.000219992
      1.65000  0.000200667
      1.64900  0.000191124
      1.64800  0.000186949
      1.64700  0.000160310
      1.64600  0.000194010
      1.64500  0.000154889
      1.64400  0.000231207
      1.64300  0.000229185
      1.64200  0.000205181
      1.64100  0.000213259
      1.64000  0.000100856
      1.63900  0.000207247
      1.63800  0.000159327
      1.63700  0.000169121
      1.63600  9.00749e-05
      1.63500  0.000141663
      1.63400  0.000177701
      1.63300  0.000132557
      1.63200  0.000109493
      1.63100  0.000222834
      1.63000  0.000164169
      1.62900  0.000132492
      1.62800  0.000159491
      1.62700  0.000163338
      1.62600  0.000183342
      1.62500  0.000104007
      1.62400  0.000204383
      1.62300  0.000145084
      1.62200  0.000121091
      1.62100  0.000116631
      1.62000  0.000169569
      1.61900  0.000151577
      1.61800  0.000130032
      1.61700  0.000206711
      1.61600  5.87539e-05
      1.61500  0.000177166
      1.61400  0.000177461
      1.61300  0.000145893
      1.61200  0.000177975
      1.61100  0.000192021
      1.61000  0.000136274
      1.60900  0.000228540
      1.60800  0.000199770
      1.60700  0.000174116
      1.60600  0.000205083
      1.60500  0.000132382
      1.60400  0.000185298
      1.60300  0.000179439
      1.60200  0.000153129
      1.60100  0.000133148
      1.60000  0.000137706
      1.59900  0.000170727
      1.59800  0.000122884
      1.59700  0.000204252
      1.59600  0.000102641
      1.59500  0.000188741
      1.59400  0.000159786
      1.59300  0.000135006
      1.59200  0.000150298
      1.59100  0.000123321
      1.59000  0.000139728
      1.58900  0.000146199
      1.58800  0.000186697
      1.58700  0.000183156
      1.58600  0.000177603
      1.58500  0.000127103
      1.58400  0.000154922
      1.58300  0.000137159
      1.58200  0.000181538
      1.58100  0.000173854
      1.58000  8.19118e-05
      1.57900  0.000155457
      1.57800  0.000149325
      1.57700  0.000193562
      1.57600  0.000124993
      1.57500  0.000109832
      1.57400  0.000193759
      1.57300  8.15423e-05
      1.57200  0.000127201
      1.57100  0.000151697
      1.57000  0.000165131
      1.56900  0.000205236
      1.56800  0.000145936
      1.56700  0.000154736
      1.56600  0.000159676
      1.56500  0.000177647
      1.56400  9.06192e-05
      1.56300  0.000177679
      1.56200  0.000113745
      1.56100  0.000196437
      1.56000  0.000154736
      1.55900  0.000227972
      1.55800  0.000172236
      1.55700  0.000182937
      1.55600  0.000171831
      1.55500  0.000204274
      1.55400  0.000131683
      1.55300  0.000182729
      1.55200  0.000126709
      1.55100  0.000189233
      1.55000  0.000165841
      1.54900  0.000180620
      1.54800  0.000128032
      1.54700  0.000107891
      1.54600  0.000140438
      1.54500  0.000127857
      1.54400  0.000154703
      1.54300  0.000196327
      1.54200  0.000150210
      1.54100  0.000113713
      1.54000  0.000168476
      1.53900  0.000132033
      1.53800  8.65672e-05
      1.53700  0.000136361
      1.53600  0.000122140
      1.53500  0.000150506
      1.53400  0.000177078
      1.53300  0.000136951
      1.53200  0.000159206
      1.53100  0.000146090
      1.53000  0.000149085
      1.52900  0.000159808
      1.52800  0.000135454
      1.52700  0.000132076
      1.52600  0.000219173
      1.52500  0.000162486
      1.52400  0.000120555
      1.52300  0.000154528
      1.52200  0.000164694
      1.52100  0.000165393
      1.52000  0.000158332
      1.51900  0.000177690
      1.51800  0.000249768
      1.51700  0.000182063
      1.51600  0.000208777
      1.51500  0.000168268
      1.51400  0.000154266
      1.51300  0.000135804
      1.51200  0.000127562
      1.51100  0.000145707
      1.51000  0.000127595
      1.50900  0.000213259
      1.50800  0.000113669
      1.50700  0.000168235
      1.50600  0.000189321
      1.50500  0.000169317
      1.50400  0.000102877
      1.50300  0.000201170
      1.50200  0.000173854
      1.50100  0.000137126
      1.50000  0.000210789
      1.49900  0.000194294
      1.49800  0.000205170
      1.49700  0.000157928
      1.49600  0.000136842
      1.49500  0.000184052
      1.49400  0.000121528
      1.49300  0.000209083
      1.49200  0.000145095
      1.49100  0.000140679
      1.49000  9.93332e-05
      1.48900  0.000213401
      1.48800  0.000154178
      1.48700  0.000240608
      1.48600  0.000204252
      1.48500  0.000172345
      1.48400  0.000154080
      1.48300  0.000199071
      1.48200  0.000191463
      1.48100  0.000136153
      1.48000  0.000185888
      1.47900  0.000234957
      1.47800  0.000182631
      1.47700  0.000220900
      1.47600  0.000213346
      1.47500  0.000213095
      1.47400  0.000200415
      1.47300  0.000154867
      1.47200  0.000185604
      1.47100  0.000163721
      1.47000  0.000196174
      1.46900  0.000248981
      1.46800  0.000155709
      1.46700  0.000232585
      1.46600  0.000169055
      1.46500  0.000201541
      1.46400  0.000193256
      1.46300  0.000271509
      1.46200  0.000168038
      1.46100  0.000206865
      1.46000  0.000240848
      1.45900  0.000185495
      1.45800  0.000190578
      1.45700  0.000212865
      1.45600  0.000222004
      1.45500  0.000141116
      1.45400  0.000216779
      1.45300  0.000193966
      1.45200  0.000231962
      1.45100  0.000172334
      1.45000  0.000190250
      1.44900  0.000233033
      1.44800  0.000175777
      1.44700  0.000168509
      1.44600  0.000201246
      1.44500  0.000190162
      1.44400  0.000248697
      1.44300  0.000163087
      1.44200  0.000150604
      1.44100  0.000163043
      1.44000  0.000228169
      1.43900  0.000155457
      1.43800  0.000206963
      1.43700  0.000213631
      1.43600  0.000157294
      1.43500  0.000232749
      1.43400  0.000190665
      1.43300  0.000142428
      1.43200  0.000200109
      1.43100  0.000127179
      1.43000  0.000225512
      1.42900  0.000199126
      1.42800  0.000182281
      1.42700  0.000124458
      1.42600  0.000198470
      1.42500  0.000243909
      1.42400  0.000191616
      1.42300  0.000147838
      1.42200  0.000128524
      1.42100  0.000126939
      1.42000  0.000188217
      1.41900  0.000208231
      1.41800  0.000233678
      1.41700  0.000155381
      1.41600  0.000216418
      1.41500  0.000207673
      1.41400  0.000225545
      1.41300  0.000193704
      1.41200  0.000274362
      1.41100  0.000212931
      1.41000  0.000255321
      1.40900  0.000283117
      1.40800  0.000245964
      1.40700  0.000277007
      1.40600  0.000308149
      1.40500  0.000295087
      1.40400  0.000307941
      1.40300  0.000345773
      1.40200  0.000361666
      1.40100  0.000384872
      1.40000  0.000383549
      1.39900  0.000391802
      1.39800  0.000358474
      1.39700  0.000383757
      1.39600  0.000529573
      1.39500  0.000532699
      1.39400  0.000528108
      1.39300  0.000551380
      1.39200  0.000639121
      1.39100  0.000651659
      1.39000  0.000710193
      1.38900  0.000746931
      1.38800  0.000904367
      1.38700  0.000899218
      1.38600   0.00101538
      1.38500   0.00102116
      1.38400   0.00115768
      1.38300   0.00113079
      1.38200   0.00126589
      1.38100   0.00132896
      1.38000   0.00138733
      1.37900   0.00141958
      1.37800   0.00151336
      1.37700   0.00155381
      1.37600   0.00173132
      1.37500   0.00175351
      1.37400   0.00187211
      1.37300   0.00194086
      1.37200   0.00201170
      1.37100   0.00209805
      1.37000   0.00225611
      1.36900   0.00239591
      1.36800   0.00256621
      1.36700   0.00274559
      1.36600   0.00293185
      1.36500   0.00309679
      1.36400   0.00339739
      1.36300   0.00361360
      1.36200   0.00400492
      1.36100   0.00434836
      1.36000   0.00469607
      1.35900   0.00533432
      1.35800   0.00586621
      1.35700   0.00649232
      1.35600   0.00725474
      1.35500   0.00815555
      1.35400   0.00931880
      1.35300    0.0106420
      1.35200    0.0121965
      1.35100    0.0140395
      1.35000    0.0164147
      1.34900    0.0190960
      1.34800    0.0223971
      1.34700    0.0267913
      1.34600    0.0318981
      1.34500    0.0382708
      1.34400    0.0463508
      1.34300    0.0564322
      1.34200    0.0691698
      1.34100    0.0858786
      1.34000     0.106852
      1.33900     0.133519
      1.33800     0.168192
      1.33700     0.211007
      1.33600     0.264983
      1.33500     0.331945
      1.33400     0.411444
      1.33300     0.501099
      1.33200     0.595486
      1.33100     0.692310
      1.33000     0.782281
      1.32900     0.858403
      1.32800     0.918653
      1.32700     0.957370
      1.32600     0.980423
      1.32500     0.989638
      1.32400     0.989288
      1.32300     0.983691
      1.32200     0.974575
      1.32100     0.964748
      1.32000     0.955796
      1.31900     0.947718
      1.31800     0.941619
      1.31700     0.936809
      1.31600     0.933257
      1.31500     0.931595
      1.31400     0.930732
      1.31300     0.930797
      1.31200     0.931759
      1.31100     0.933082
      1.31000     0.934918
      1.30900     0.937323
      1.30800     0.939728
      1.30700     0.942756
      1.30600     0.944811
      1.30500     0.947849
      1.30400     0.950702
      1.30300     0.953708
      1.30200     0.957097
      1.30100     0.960070
      1.30000     0.963502
      1.29900     0.966639
      1.29800     0.969930
      1.29700     0.973252
      1.29600     0.976280
      1.29500     0.979275
      1.29400     0.982281
      1.29300     0.984872
      1.29200     0.987441
      1.29100     0.989955
      1.29000     0.991999
      1.28900     0.993715
      1.28800     0.995365
      1.28700     0.996710
      1.28600     0.997737
      1.28500     0.998349
      1.28400     0.999136
      1.28300     0.999377
      1.28200     0.999596
      1.28100      1.00000
      1.28000     0.999934
      1.27900     0.999366
      1.27800     0.998885
      1.27700     0.998459
      1.27600     0.997934
      1.27500     0.997125
      1.27400     0.996579
      1.27300     0.996032
      1.27200     0.995650
      1.27100     0.995005
      1.27000     0.994677
      1.26900     0.994480
      1.26800     0.993485
      1.26700     0.993474
      1.26600     0.993059
      1.26500     0.992633
      1.26400     0.992086
      1.26300     0.991747
      1.26200     0.991299
      1.26100     0.990840
      1.26000     0.989638
      1.25900     0.988490
      1.25800     0.987517
      1.25700     0.985801
      1.25600     0.984085
      1.25500     0.981997
      1.25400     0.979855
      1.25300     0.977384
      1.25200     0.974411
      1.25100     0.971646
      1.25000     0.968749
      1.24900     0.965360
      1.24800     0.962048
      1.24700     0.958715
      1.24600     0.955402
      1.24500     0.952058
      1.24400     0.948855
      1.24300     0.945827
      1.24200     0.943062
      1.24100     0.940624
      1.24000     0.938066
      1.23900     0.936011
      1.23800     0.934098
      1.23700     0.932524
      1.23600     0.931650
      1.23500     0.930786
      1.23400     0.930185
      1.23300     0.930174
      1.23200     0.930524
      1.23100     0.931169
      1.23000     0.932000
      1.22900     0.933792
      1.22800     0.935355
      1.22700     0.937891
      1.22600     0.940242
      1.22500     0.942996
      1.22400     0.945641
      1.22300     0.948614
      1.22200     0.951653
      1.22100     0.954681
      1.22000     0.956988
      1.21900     0.959589
      1.21800     0.961250
      1.21700     0.962737
      1.21600     0.963196
      1.21500     0.962934
      1.21400     0.962442
      1.21300     0.960551
      1.21200     0.958223
      1.21100     0.954943
      1.21000     0.951413
      1.20900     0.947040
      1.20800     0.942351
      1.20700     0.938077
      1.20600     0.932929
      1.20500     0.928557
      1.20400     0.924709
      1.20300     0.920675
      1.20200     0.917713
      1.20100     0.915188
      1.20000     0.913297
      1.19900     0.912313
      1.19800     0.911231
      1.19700     0.910838
      1.19600     0.910576
      1.19500     0.910280
      1.19400     0.909723
      1.19300     0.908717
      1.19200     0.907165
      1.19100     0.904815
      1.19000     0.901864
      1.18900     0.898344
      1.18800     0.894464
      1.18700     0.891009
      1.18600     0.887971
      1.18500     0.886167
      1.18400     0.885785
      1.18300     0.887435
      1.18200     0.890988
      1.18100     0.896661
      1.18000     0.903328
      1.17900     0.909635
      1.17800     0.913079
      1.17700     0.910062
      1.17600     0.896092
      1.17500     0.867038
      1.17400     0.820145
      1.17300     0.754583
      1.17200     0.674078
      1.17100     0.585069
      1.17000     0.492365
      1.16900     0.407805
      1.16800     0.331803
      1.16700     0.266208
      1.16600     0.213871
      1.16500     0.170662
      1.16400     0.135071
      1.16300     0.108439
      1.16200    0.0867913
      1.16100    0.0697754
      1.16000    0.0565907
      1.15900    0.0458031
      1.15800    0.0372334
      1.15700    0.0303416
      1.15600    0.0247483
      1.15500    0.0202973
      1.15400    0.0165371
      1.15300    0.0136153
      1.15200    0.0111024
      1.15100   0.00908280
      1.15000   0.00747139
      1.14900   0.00619402
      1.14800   0.00509493
      1.14700   0.00417708
      1.14600   0.00342482
      1.14500   0.00284440
      1.14400   0.00244368
      1.14300   0.00203640
      1.14200   0.00170247
      1.14100   0.00139728
      1.14000   0.00127081
      1.13900  0.000987462
      1.13800  0.000828507
      1.13700  0.000761425
      1.13600  0.000709723
      1.13500  0.000646631
      1.13400  0.000546483
      1.13300  0.000490900
      1.13200  0.000474253
      1.13100  0.000411543
      1.13000  0.000385265
      1.12900  0.000392195
      1.12800  0.000391255
      1.12700  0.000345969
      1.12600  0.000319309
      1.12500  0.000312794
      1.12400  0.000212745
      1.12300  0.000258436
      1.12200  0.000249309
      1.12100  0.000242761
      1.12000  0.000279117
      1.11900  0.000222222
      1.11800  0.000207662
      1.11700  0.000207892
      1.11600  0.000235820
      1.11500  0.000260567
      1.11400  0.000198546
      1.11300  0.000183954
      1.11200  0.000239711
      1.11100  0.000161021
      1.11000  0.000228945
      1.10900  0.000176018
      1.10800  0.000141674
      1.10700  0.000189681
      1.10600  0.000188588
      1.10500  0.000187834
      1.10400  0.000220408
      1.10300  0.000137837
      1.10200  0.000215915
      1.10100  0.000152932
      1.10000  0.000174947
      1.09900  0.000187353
      1.09800  0.000153665
      1.09700  0.000164322
      1.09600  0.000253900
      1.09500  0.000225414
      1.09400  0.000170389
      1.09300  0.000147620
      1.09200  0.000202984
      1.09100  0.000123201
      1.09000  0.000165404
      1.08900  0.000175439
      1.08800  0.000212232
      1.08700  0.000169613
      1.08600  0.000106121
      1.08500  0.000178390
      1.08400  0.000139061
      1.08300  0.000187080
      1.08200  0.000125048
      1.08100  0.000186752
      1.08000  0.000168749
      1.07900  0.000114860
      1.07800  0.000212013
      1.07700  0.000127726
      1.07600  0.000119342
      1.07500  0.000169940
      1.07400  0.000156474
      1.07300  0.000200864
      1.07200  0.000193759
      1.07100  0.000105560
      1.07000  0.000175023
      1.06900  0.000165240
      1.06800  0.000170367
      1.06700  0.000150451
      1.06600  0.000124141
      1.06500  0.000208023
      1.06400  0.000142952
      1.06300  0.000159075
      1.06200  0.000176499
      1.06100  0.000113702
      1.06000  0.000190217
      1.05900  0.000173854
      1.05800  0.000146319
      1.05700  0.000172170
      1.05600  0.000155720
      1.05500  0.000155042
      1.05400  0.000171504
      1.05300  0.000146658
      1.05200  0.000142931
      1.05100  0.000224233
      1.05000  0.000128928
      1.04900  0.000188184
      1.04800  0.000225807
      1.04700  0.000232967
      1.04600  0.000171329
      1.04500  0.000118030
      1.04400  0.000132896
      1.04300  0.000180051
      1.04200  0.000161753
      1.04100  0.000154933
      1.04000  0.000142865
      1.03900  0.000164956
      1.03800  0.000152123
      1.03700  0.000179111
      1.03600  0.000160146
      1.03500  0.000128447
      1.03400  0.000207269
      1.03300  0.000169995
      1.03200  0.000172837
      1.03100  0.000133814
      1.03000  0.000202820
      1.02900  0.000215248
      1.02800  0.000203552
      1.02700  0.000155195
      1.02600  0.000146811
      1.02500  0.000212909
      1.02400  0.000147347
      1.02300  0.000276155
      1.02200  0.000131027
      1.02100  0.000165087
      1.02000  0.000149533
      1.01900  0.000167077
      1.01800  0.000150921
      1.01700  0.000169383
      1.01600  0.000166596
      1.01500  0.000188359
      1.01400  0.000129814
      1.01300  0.000157764
      1.01200  0.000145641
      1.01100  0.000183035
      1.01000  0.000130699
      1.00900  0.000159458
      1.00800  0.000207848
      1.00700  0.000155883
      1.00600  0.000156561
      1.00500  0.000198896
      1.00400  0.000171034
      1.00300  0.000123419
      1.00200  0.000148429
      1.00100  0.000142100
      1.00000  0.000186151
     0.999000  0.000184489
     0.998000  0.000156780
     0.997000  0.000171405
     0.996000  0.000120621
     0.995000  0.000160223
     0.994000  0.000180521
     0.993000  0.000181057
     0.992000  0.000143882
     0.991000  0.000110827
     0.990000  0.000162267
     0.989000  0.000163207
     0.988000  0.000198907
     0.987000  0.000128349
     0.986000  0.000182642
     0.985000  0.000161491
     0.984000  0.000143892
     0.983000  0.000138930
     0.982000  0.000148068
     0.981000  0.000143291
     0.980000  0.000135498
     0.979000  0.000129125
     0.978000  0.000184588
     0.977000  0.000167459
     0.976000  0.000134492
     0.975000  0.000157381
     0.974000  0.000120544
     0.973000  0.000120566
     0.972000  0.000195005
     0.971000  0.000101610
     0.970000  0.000191168
     0.969000  0.000156113
     0.968000  0.000179756
     0.967000  0.000156736
     0.966000  0.000187047
     0.965000  0.000228890
     0.964000  0.000102685
     0.963000  0.000231240
     0.962000  0.000174673
     0.961000  0.000196229
     0.960000  0.000158769
     0.959000  0.000250620
     0.958000  0.000210395
     0.957000  0.000151937
     0.956000  0.000204602
     0.955000  0.000165175
     0.954000  0.000154954
     0.953000  0.000173165
     0.952000  0.000159392
     0.951000  0.000184894
     0.950000  0.000140941
     0.949000  0.000121255
     0.948000  0.000169066
     0.947000  0.000171875
     0.946000  0.000155304
     0.945000  0.000133978
     0.944000  0.000117593
     0.943000  0.000181177
     0.942000  0.000153741
     0.941000  0.000148877
     0.940000  0.000169153
     0.939000  0.000180871
     0.938000  0.000136798
     0.937000  0.000168071
     0.936000  0.000131224
     0.935000  0.000151664
     0.934000  0.000180587
     0.933000  0.000119878
     0.932000  0.000155588
     0.931000  0.000295174
     0.930000  0.000145259
     0.929000  0.000163677
     0.928000  0.000126578
     0.927000  0.000163360
     0.926000  0.000131519
     0.925000  0.000177275
     0.924000  0.000174083
     0.923000  0.000182074
     0.922000  0.000141564
     0.921000  0.000234006
     0.920000  9.85375e-05
     0.919000  0.000121561
     0.918000  0.000169864
     0.917000  0.000160092
     0.916000  0.000156485
     0.915000  0.000159032
     0.914000  0.000188818
     0.913000  0.000122381
     0.912000  0.000143193
     0.911000  0.000142679
     0.910000  0.000212516
     0.909000  0.000182850
     0.908000  0.000211794
     0.907000  0.000135793
     0.906000  0.000185167
     0.905000  0.000139586
     0.904000  0.000200361
     0.903000  0.000159294
     0.902000  0.000167339
     0.901000  0.000116675
     0.900000  0.000161327
     0.899000  7.07340e-05
     0.898000  0.000172586
     0.897000  0.000162398
     0.896000  0.000200066
     0.895000  0.000139487
     0.894000  0.000143619
     0.893000  0.000206821
     0.892000  0.000201301
     0.891000  0.000107717
     0.890000  0.000228398
     0.889000  0.000163819
     0.888000  0.000142690
     0.887000  0.000150724
     0.886000  0.000157982
     0.885000  0.000191944
     0.884000  9.03033e-05
     0.883000  0.000155392
     0.882000  0.000198677
     0.881000  0.000143521
     0.880000  0.000114882
     0.879000  0.000207367
     0.878000  0.000200645
     0.877000  0.000195693
     0.876000  8.11084e-05
     0.875000  0.000165109
     0.874000  0.000167470
     0.873000  0.000164278
     0.872000  0.000181155
     0.871000  0.000167995
     0.870000  0.000185681
     0.869000  0.000182052
     0.868000  0.000172247
     0.867000  0.000219992
     0.866000  0.000128753
     0.865000  0.000125474
     0.864000  0.000162278
     0.863000  0.000201804
     0.862000  8.57627e-05
     0.861000  0.000121266
     0.860000  0.000227699
     0.859000  0.000167022
     0.858000  0.000110138
     0.857000  0.000176958
     0.856000  0.000130338
     0.855000  0.000143718
     0.854000  0.000132623
     0.853000  0.000192403
     0.852000  0.000126709
     0.851000  0.000164420
     0.850000  0.000202853
     0.849000  0.000171263
     0.848000  0.000171121
     0.847000  0.000102359
     0.846000  0.000236727
     0.845000  0.000124928
     0.844000  0.000175318
     0.843000  0.000198175
     0.842000  0.000185189
     0.841000  0.000124315
     0.840000  0.000142176
     0.839000  0.000190457
     0.838000  0.000221468
     0.837000  0.000180292
     0.836000  0.000165131
     0.835000  0.000180172
     0.834000  0.000118249
     0.833000  0.000115615
     0.832000  0.000181210
     0.831000  0.000190742
     0.830000  0.000153938
     0.829000  0.000161097
     0.828000  0.000170771
     0.827000  0.000211160
     0.826000  0.000162431
     0.825000  0.000149817
     0.824000  0.000201399
     0.823000  0.000148374
     0.822000  0.000178138
     0.821000  0.000148046
     0.820000  9.53632e-05
     0.819000  0.000192818
     0.818000  0.000111395
     0.817000  0.000204799
     0.816000  0.000135148
     0.815000  0.000116292
     0.814000  0.000146243
     0.813000  0.000194360
     0.812000  0.000139312
     0.811000  0.000183210
     0.810000  0.000164475
     0.809000  0.000175898
     0.808000  0.000144526
     0.807000  0.000139105
     0.806000  0.000123375
     0.805000  0.000163360
     0.804000  0.000144100
     0.803000  0.000203607
     0.802000  0.000168836
     0.801000  7.51325e-05
     0.800000  0.000164694
     0.799     0.0
     
