#from RSR-W3.txt
# Relative Spectral Response per photon; Wright et al. 2010
      2.52999   0.0
      2.53000  1.87643e-15
      2.54000  6.11667e-15
      2.55000  1.00929e-13
      2.56000  1.01143e-14
      2.57000  5.46429e-15
      2.58000  4.08095e-14
      2.59000  5.61905e-18
      2.60000  1.62833e-14
      2.61000  2.50238e-14
      2.62000  6.77619e-14
      2.63000  3.42619e-14
      2.64000  8.49762e-15
      2.65000  1.50810e-14
      2.66000  9.33095e-16
      2.67000  3.77143e-14
      2.68000  2.92857e-14
      2.69000  3.99048e-14
      2.70000  2.28762e-14
      2.71000  1.12238e-14
      2.72000  1.84452e-14
      2.73000  2.08167e-13
      2.74000  4.17619e-14
      2.75000  3.17857e-14
      2.76000  4.80238e-13
      2.77000  2.88810e-14
      2.78000  3.75000e-14
      2.79000  1.48690e-15
      2.80000  8.00238e-16
      2.81000  1.47476e-16
      2.82000  4.33095e-15
      2.83000  5.49524e-15
      2.84000  4.95238e-14
      2.85000  1.97976e-14
      2.86000  7.41667e-15
      2.87000  6.56190e-15
      2.88000  6.68810e-15
      2.89000  7.25714e-14
      2.90000  7.90476e-14
      2.91000  3.51190e-13
      2.92000  2.35595e-15
      2.93000  6.71429e-14
      2.94000  5.30000e-14
      2.95000  4.93095e-14
      2.96000  8.85238e-15
      2.97000  5.10952e-15
      2.98000  7.33095e-16
      2.99000  3.73333e-13
      3.00000  9.20000e-13
      3.01000  4.20952e-15
      3.02000  8.35238e-14
      3.03000  4.04048e-14
      3.04000  5.03095e-15
      3.05000  7.11429e-14
      3.06000  9.33810e-16
      3.07000  3.10714e-14
      3.08000  3.96905e-12
      3.09000  3.94048e-12
      3.10000  2.42857e-14
      3.11000  1.00929e-13
      3.12000  6.00476e-14
      3.13000  1.56905e-15
      3.14000  2.39524e-14
      3.15000  1.01143e-14
      3.16000  1.54738e-14
      3.17000  1.00214e-13
      3.18000  1.90833e-13
      3.19000  2.27595e-14
      3.20000  5.79048e-14
      3.21000  1.04405e-14
      3.22000  8.95714e-14
      3.23000  1.79310e-13
      3.24000  2.86667e-14
      3.25000  1.68619e-14
      3.26000  6.19048e-14
      3.27000  2.66667e-13
      3.28000  5.66667e-14
      3.29000  1.03976e-13
      3.30000  5.87619e-14
      3.31000  1.65833e-13
      3.32000  5.25000e-13
      3.33000  4.84286e-13
      3.34000  6.55238e-14
      3.35000  1.40310e-13
      3.36000  1.72452e-14
      3.37000  4.41429e-13
      3.38000  7.69762e-14
      3.39000  3.95714e-14
      3.40000  1.00071e-13
      3.41000  9.34524e-14
      3.42000  4.52381e-14
      3.43000  8.80714e-17
      3.44000  4.66667e-14
      3.45000  8.68572e-14
      3.46000  2.60238e-14
      3.47000  3.56190e-14
      3.48000  6.05238e-13
      3.49000  3.67381e-14
      3.50000  3.10714e-13
      3.51000  4.23333e-13
      3.52000  9.95238e-14
      3.53000  1.10786e-12
      3.54000  6.05476e-14
      3.55000  3.69762e-13
      3.56000  1.49262e-12
      3.57000  1.37643e-14
      3.58000  1.21976e-13
      3.59000  8.17381e-15
      3.60000  1.88286e-13
      3.61000  4.55000e-14
      3.62000  2.03881e-13
      3.63000  3.57619e-12
      3.64000  8.91429e-14
      3.65000  6.23333e-12
      3.66000  3.17619e-12
      3.67000  4.80714e-12
      3.68000  9.70000e-12
      3.69000  3.26190e-12
      3.70000  6.35476e-15
      3.71000  4.18095e-14
      3.72000  2.16095e-14
      3.73000  1.74500e-13
      3.74000  2.77381e-12
      3.75000  6.84524e-14
      3.76000  3.69048e-14
      3.77000  1.80429e-13
      3.78000  2.08714e-12
      3.79000  1.80619e-13
      3.80000  6.53095e-13
      3.81000  4.89286e-12
      3.82000  1.31524e-13
      3.83000  8.06429e-15
      3.84000  4.16429e-12
      3.85000  2.76905e-13
      3.86000  2.22571e-12
      3.87000  1.09476e-13
      3.88000  2.76905e-12
      3.89000  5.61429e-14
      3.90000  7.81191e-14
      3.91000  3.89286e-14
      3.92000  5.81429e-14
      3.93000  2.33881e-12
      3.94000  3.70952e-13
      3.95000  3.19048e-12
      3.96000  4.41905e-12
      3.97000  2.44524e-13
      3.98000  2.12881e-13
      3.99000  1.04548e-12
      4.00000  3.15238e-13
      4.01000  1.34524e-12
      4.02000  6.75476e-14
      4.03000  6.09762e-13
      4.04000  4.00238e-12
      4.05000  5.94762e-15
      4.06000  2.41429e-13
      4.07000  4.04524e-14
      4.08000  4.34286e-13
      4.09000  1.04071e-12
      4.10000  1.23310e-12
      4.11000  3.79524e-14
      4.12000  5.50952e-13
      4.13000  6.32381e-14
      4.14000  3.73810e-14
      4.15000  8.09286e-13
      4.16000  4.61667e-13
      4.17000  3.67619e-14
      4.18000  1.23024e-13
      4.19000  1.74405e-13
      4.20000  7.95476e-14
      4.21000  1.85333e-12
      4.22000  2.08238e-13
      4.23000  1.65429e-12
      4.24000  3.29524e-14
      4.25000  1.94619e-12
      4.26000  1.19048e-12
      4.27000  1.46786e-12
      4.28000  4.82143e-13
      4.29000  5.35238e-13
      4.30000  5.31667e-14
      4.31000  2.16762e-12
      4.32000  1.92357e-12
      4.33000  1.43310e-14
      4.34000  1.17048e-12
      4.35000  2.41905e-12
      4.36000  1.61548e-13
      4.37000  5.16190e-13
      4.38000  2.75952e-13
      4.39000  7.39762e-14
      4.40000  2.08667e-12
      4.41000  5.56429e-12
      4.42000  2.04976e-13
      4.43000  3.28810e-12
      4.44000  7.97857e-12
      4.45000  9.70714e-13
      4.46000  5.35714e-13
      4.47000  3.44524e-13
      4.48000  1.21952e-13
      4.49000  3.49762e-13
      4.50000  2.88810e-13
      4.51000  3.46667e-13
      4.52000  4.33810e-13
      4.53000  4.95952e-12
      4.54000  2.94524e-12
      4.55000  8.62381e-14
      4.56000  9.19524e-12
      4.57000  6.54286e-13
      4.58000  4.94048e-13
      4.59000  3.34524e-13
      4.60000  7.00952e-12
      4.61000  5.69524e-12
      4.62000  7.05238e-13
      4.63000  5.76190e-12
      4.64000  9.94524e-12
      4.65000  7.16905e-14
      4.66000  8.19762e-15
      4.67000  6.56429e-14
      4.68000  5.45476e-12
      4.69000  2.76905e-13
      4.70000  3.28810e-13
      4.71000  2.32833e-13
      4.72000  9.94286e-14
      4.73000  1.14905e-13
      4.74000  5.12381e-14
      4.75000  2.17952e-12
      4.76000  4.44048e-13
      4.77000  1.40738e-13
      4.78000  4.14762e-12
      4.79000  3.21429e-13
      4.80000  2.95714e-13
      4.81000  2.43095e-13
      4.82000  1.01905e-11
      4.83000  3.74762e-14
      4.84000  3.60476e-12
      4.85000  1.33810e-11
      4.86000  1.15262e-11
      4.87000  5.03810e-13
      4.88000  8.74286e-13
      4.89000  1.05786e-12
      4.90000  1.98452e-13
      4.91000  2.30762e-13
      4.92000  2.39048e-13
      4.93000  1.76905e-11
      4.94000  1.42405e-11
      4.95000  1.38071e-11
      4.96000  2.92143e-11
      4.97000  4.25238e-11
      4.98000  2.74048e-11
      4.99000  5.41429e-13
      5.00000  4.24048e-11
      5.01000  2.60476e-11
      5.02000  1.69048e-11
      5.03000  5.33095e-12
      5.04000  1.42571e-11
      5.05000  2.48810e-10
      5.06000  4.47857e-10
      5.07000  3.06667e-11
      5.08000  6.41191e-11
      5.09000  2.69286e-11
      5.10000  2.57381e-10
      5.11000  1.27952e-07
      5.12000  1.25762e-07
      5.13000  1.35048e-07
      5.14000  9.60952e-08
      5.15000  9.79762e-08
      5.16000  9.04524e-08
      5.17000  8.39524e-08
      5.18000  7.76429e-08
      5.19000  1.15690e-07
      5.20000  1.10643e-07
      5.21000  8.50952e-08
      5.22000  7.27619e-08
      5.23000  7.43809e-08
      5.24000  7.78333e-08
      5.25000  1.14905e-07
      5.26000  9.50000e-08
      5.27000  9.66667e-08
      5.28000  1.05643e-07
      5.29000  1.19571e-07
      5.30000  9.58809e-08
      5.31000  1.28167e-07
      5.32000  1.37452e-07
      5.33000  1.44024e-07
      5.34000  1.29976e-07
      5.35000  1.34667e-07
      5.36000  8.80238e-08
      5.37000  1.01548e-07
      5.38000  1.24548e-07
      5.39000  1.27714e-07
      5.40000  1.26238e-07
      5.41000  1.27452e-07
      5.42000  9.84286e-08
      5.43000  8.97143e-08
      5.44000  1.21405e-07
      5.45000  1.50095e-07
      5.46000  1.46690e-07
      5.47000  1.65714e-07
      5.48000  1.70643e-07
      5.49000  1.66619e-07
      5.50000  1.67238e-07
      5.51000  1.69333e-07
      5.52000  1.71643e-07
      5.53000  1.72548e-07
      5.54000  1.71214e-07
      5.55000  1.71976e-07
      5.56000  1.72452e-07
      5.57000  1.72690e-07
      5.58000  1.73048e-07
      5.59000  1.70762e-07
      5.60000  1.69976e-07
      5.61000  1.68548e-07
      5.62000  1.72476e-07
      5.63000  1.72690e-07
      5.64000  1.68381e-07
      5.65000  1.66619e-07
      5.66000  1.64548e-07
      5.67000  1.64333e-07
      5.68000  1.60952e-07
      5.69000  1.56048e-07
      5.70000  1.55048e-07
      5.71000  1.59762e-07
      5.72000  1.56643e-07
      5.73000  1.56429e-07
      5.74000  1.61833e-07
      5.75000  1.67190e-07
      5.76000  1.70452e-07
      5.77000  1.71357e-07
      5.78000  1.68238e-07
      5.79000  1.74500e-07
      5.80000  1.76262e-07
      5.81000  1.79810e-07
      5.82000  1.87881e-07
      5.83000  1.89333e-07
      5.84000  1.88048e-07
      5.85000  1.91905e-07
      5.86000  1.87690e-07
      5.87000  1.88833e-07
      5.88000  1.90929e-07
      5.89000  1.97571e-07
      5.90000  1.92976e-07
      5.91000  1.92500e-07
      5.92000  1.92548e-07
      5.93000  1.99762e-07
      5.94000  2.01190e-07
      5.95000  2.05762e-07
      5.96000  2.09595e-07
      5.97000  2.15714e-07
      5.98000  2.11119e-07
      5.99000  2.17262e-07
      6.00000  2.13119e-07
      6.01000  2.14786e-07
      6.02000  2.20667e-07
      6.03000  2.22381e-07
      6.04000  2.32429e-07
      6.05000  2.32476e-07
      6.06000  2.23857e-07
      6.07000  2.33762e-07
      6.08000  2.31595e-07
      6.09000  2.45714e-07
      6.10000  2.55000e-07
      6.11000  2.68095e-07
      6.12000  2.88333e-07
      6.13000  3.36667e-07
      6.14000  3.93571e-07
      6.15000  4.93095e-07
      6.16000  6.08810e-07
      6.17000  7.97619e-07
      6.18000  1.06857e-06
      6.19000  1.48571e-06
      6.20000  2.06310e-06
      6.21000  2.59524e-06
      6.22000  2.93095e-06
      6.23000  3.93810e-06
      6.24000  3.05238e-06
      6.25000  4.40000e-06
      6.26000  3.73571e-06
      6.27000  3.78095e-06
      6.28000  4.71905e-06
      6.29000  2.77143e-06
      6.30000  3.37381e-06
      6.31000  2.57619e-06
      6.32000  1.49714e-06
      6.33000  1.96119e-06
      6.34000  3.72857e-06
      6.35000  2.29500e-06
      6.36000  1.49048e-08
      6.37000  5.02143e-07
      6.38000  1.38119e-08
      6.39000  3.45238e-06
      6.40000  4.15952e-06
      6.41000  3.09048e-06
      6.42000  2.68333e-06
      6.43000  4.65238e-06
      6.44000  3.10000e-08
      6.45000  8.73095e-07
      6.46000  9.90952e-09
      6.47000  1.38643e-06
      6.48000  7.99048e-07
      6.49000  4.39286e-07
      6.50000  3.01429e-07
      6.51000  3.40000e-06
      6.52000  9.66191e-06
      6.53000  7.47143e-06
      6.54000  1.38976e-06
      6.55000  6.30476e-07
      6.56000  1.14476e-07
      6.57000  1.36667e-10
      6.58000  1.07881e-10
      6.59000  8.58333e-11
      6.60000  7.10476e-11
      6.61000  6.60952e-11
      6.62000  7.05000e-11
      6.63000  1.54571e-07
      6.64000  9.47619e-08
      6.65000  1.21119e-10
      6.66000  1.45238e-10
      6.67000  1.62071e-10
      6.68000  1.73762e-10
      6.69000  1.81619e-10
      6.70000  3.50714e-07
      6.71000  1.62524e-10
      6.72000  1.36810e-10
      6.73000  2.90952e-07
      6.74000  7.58810e-06
      6.75000  9.28571e-07
      6.76000  6.99524e-06
      6.77000  6.76190e-06
      6.78000  1.85238e-06
      6.79000  1.08690e-05
      6.80000  2.83333e-06
      6.81000  1.46762e-05
      6.82000  2.78333e-05
      6.83000  2.09833e-05
      6.84000  2.64524e-05
      6.85000  1.98167e-05
      6.86000  5.67619e-06
      6.87000  6.12619e-06
      6.88000  2.33786e-05
      6.89000  3.07381e-05
      6.90000  4.16429e-05
      6.91000  7.42381e-06
      6.92000  4.03333e-05
      6.93000  7.30476e-06
      6.94000  7.22143e-06
      6.95000  7.20238e-06
      6.96000  7.28095e-06
      6.97000  7.80238e-06
      6.98000  2.71190e-05
      6.99000  8.13095e-06
      7.00000  7.17619e-06
      7.01000  2.61429e-05
      7.02000  1.48857e-08
      7.03000  1.95071e-08
      7.04000  1.23524e-06
      7.05000  3.28571e-08
      7.06000  5.57381e-06
      7.07000  5.56429e-08
      7.08000  7.18095e-08
      7.09000  9.27619e-08
      7.10000  1.01952e-05
      7.11000  1.55024e-07
      7.12000  2.02857e-07
      7.13000  2.66667e-07
      7.14000  3.51905e-07
      7.15000  4.74286e-07
      7.16000  2.37548e-05
      7.17000  8.88571e-07
      7.18000  1.24071e-06
      7.19000  1.74500e-06
      7.20000  5.63571e-05
      7.21000   0.00345000
      7.22000   0.00339524
      7.23000   0.00424048
      7.24000   0.00445476
      7.25000   0.00410000
      7.26000   0.00430238
      7.27000   0.00381429
      7.28000   0.00229476
      7.29000   0.00326190
      7.30000   0.00532619
      7.31000   0.00666905
      7.32000   0.00709524
      7.33000   0.00694762
      7.34000   0.00743571
      7.35000   0.00724762
      7.36000   0.00655238
      7.37000   0.00654048
      7.38000   0.00621667
      7.39000   0.00661191
      7.40000   0.00715238
      7.41000   0.00835000
      7.42000    0.0105833
      7.43000    0.0138452
      7.44000    0.0179810
      7.45000    0.0227286
      7.46000    0.0279524
      7.47000    0.0337381
      7.48000    0.0410476
      7.49000    0.0505952
      7.50000    0.0641190
      7.51000    0.0830476
      7.52000     0.109500
      7.53000     0.145333
      7.54000     0.191976
      7.55000     0.248571
      7.56000     0.314286
      7.57000     0.382143
      7.58000     0.440714
      7.59000     0.485476
      7.60000     0.511667
      7.61000     0.518809
      7.62000     0.509524
      7.63000     0.490476
      7.64000     0.466667
      7.65000     0.445238
      7.66000     0.426190
      7.67000     0.411905
      7.68000     0.400000
      7.69000     0.392857
      7.70000     0.390476
      7.71000     0.390476
      7.72000     0.390476
      7.73000     0.392857
      7.74000     0.395238
      7.75000     0.395238
      7.76000     0.397619
      7.77000     0.400000
      7.78000     0.404762
      7.79000     0.411905
      7.80000     0.419048
      7.81000     0.426190
      7.82000     0.433333
      7.83000     0.440476
      7.84000     0.447619
      7.85000     0.452381
      7.86000     0.457143
      7.87000     0.459524
      7.88000     0.461905
      7.89000     0.464286
      7.90000     0.469048
      7.91000     0.471429
      7.92000     0.476191
      7.93000     0.485714
      7.94000     0.492857
      7.95000     0.502381
      7.96000     0.514286
      7.97000     0.528571
      7.98000     0.542857
      7.99000     0.554762
      8.00000     0.564286
      8.01000     0.571429
      8.02000     0.578571
      8.03000     0.583333
      8.04000     0.588095
      8.05000     0.590476
      8.06000     0.590476
      8.07000     0.592857
      8.08000     0.592857
      8.09000     0.597619
      8.10000     0.600000
      8.11000     0.600000
      8.12000     0.600000
      8.13000     0.597619
      8.14000     0.592857
      8.15000     0.588095
      8.16000     0.580952
      8.17000     0.573810
      8.18000     0.569048
      8.19000     0.566667
      8.20000     0.561905
      8.21000     0.559524
      8.22000     0.554762
      8.23000     0.552381
      8.24000     0.550000
      8.25000     0.545238
      8.26000     0.538095
      8.27000     0.528571
      8.28000     0.519048
      8.29000     0.509524
      8.30000     0.507143
      8.31000     0.507143
      8.32000     0.507143
      8.33000     0.509524
      8.34000     0.509524
      8.35000     0.507143
      8.36000     0.504762
      8.37000     0.504762
      8.38000     0.507143
      8.39000     0.511905
      8.40000     0.516667
      8.41000     0.519048
      8.42000     0.523810
      8.43000     0.528571
      8.44000     0.533333
      8.45000     0.538095
      8.46000     0.545238
      8.47000     0.552381
      8.48000     0.559524
      8.49000     0.566667
      8.50000     0.573810
      8.51000     0.580952
      8.52000     0.585714
      8.53000     0.590476
      8.54000     0.595238
      8.55000     0.600000
      8.56000     0.604762
      8.57000     0.607143
      8.58000     0.609524
      8.59000     0.609524
      8.60000     0.607143
      8.61000     0.604762
      8.62000     0.602381
      8.63000     0.600000
      8.64000     0.595238
      8.65000     0.592857
      8.66000     0.590476
      8.67000     0.588095
      8.68000     0.585714
      8.69000     0.580952
      8.70000     0.578571
      8.71000     0.573810
      8.72000     0.571429
      8.73000     0.569048
      8.74000     0.561905
      8.75000     0.550000
      8.76000     0.523810
      8.77000     0.478571
      8.78000     0.416667
      8.79000     0.357143
      8.80000     0.323810
      8.81000     0.333333
      8.82000     0.373810
      8.83000     0.428571
      8.84000     0.476191
      8.85000     0.509524
      8.86000     0.528571
      8.87000     0.540476
      8.88000     0.547619
      8.89000     0.554762
      8.90000     0.561905
      8.91000     0.569048
      8.92000     0.573810
      8.93000     0.578571
      8.94000     0.580952
      8.95000     0.580952
      8.96000     0.583333
      8.97000     0.585714
      8.98000     0.585714
      8.99000     0.588095
      9.00000     0.588095
      9.01000     0.585714
      9.02000     0.583333
      9.03000     0.580952
      9.04000     0.578571
      9.05000     0.576190
      9.06000     0.576190
      9.07000     0.578571
      9.08000     0.578571
      9.09000     0.580952
      9.10000     0.583333
      9.11000     0.588095
      9.12000     0.588095
      9.13000     0.590476
      9.14000     0.590476
      9.15000     0.588095
      9.16000     0.585714
      9.17000     0.580952
      9.18000     0.578571
      9.19000     0.573810
      9.20000     0.571429
      9.21000     0.571429
      9.22000     0.569048
      9.23000     0.569048
      9.24000     0.566667
      9.25000     0.566667
      9.26000     0.561905
      9.27000     0.561905
      9.28000     0.559524
      9.29000     0.559524
      9.30000     0.561905
      9.31000     0.561905
      9.32000     0.564286
      9.33000     0.564286
      9.34000     0.564286
      9.35000     0.566667
      9.36000     0.566667
      9.37000     0.564286
      9.38000     0.564286
      9.39000     0.564286
      9.40000     0.566667
      9.41000     0.566667
      9.42000     0.569048
      9.43000     0.569048
      9.44000     0.571429
      9.45000     0.573810
      9.46000     0.576190
      9.47000     0.578571
      9.48000     0.583333
      9.49000     0.588095
      9.50000     0.592857
      9.51000     0.597619
      9.52000     0.600000
      9.53000     0.600000
      9.54000     0.600000
      9.55000     0.597619
      9.56000     0.592857
      9.57000     0.590476
      9.58000     0.585714
      9.59000     0.580952
      9.60000     0.576190
      9.61000     0.571429
      9.62000     0.569048
      9.63000     0.566667
      9.64000     0.566667
      9.65000     0.569048
      9.66000     0.571429
      9.67000     0.576190
      9.68000     0.578571
      9.69000     0.583333
      9.70000     0.585714
      9.71000     0.585714
      9.72000     0.585714
      9.73000     0.585714
      9.74000     0.583333
      9.75000     0.580952
      9.76000     0.580952
      9.77000     0.580952
      9.78000     0.580952
      9.79000     0.583333
      9.80000     0.585714
      9.81000     0.588095
      9.82000     0.590476
      9.83000     0.592857
      9.84000     0.595238
      9.85000     0.597619
      9.86000     0.600000
      9.87000     0.602381
      9.88000     0.604762
      9.89000     0.607143
      9.90000     0.611905
      9.91000     0.616667
      9.92000     0.623810
      9.93000     0.628571
      9.94000     0.635714
      9.95000     0.640476
      9.96000     0.645238
      9.97000     0.650000
      9.98000     0.652381
      9.99000     0.657143
      10.0000     0.659524
      10.0100     0.664286
      10.0200     0.671429
      10.0300     0.676190
      10.0400     0.683333
      10.0500     0.692857
      10.0600     0.702381
      10.0700     0.711905
      10.0800     0.719048
      10.0900     0.728571
      10.1000     0.738095
      10.1100     0.745238
      10.1200     0.752381
      10.1300     0.759524
      10.1400     0.764286
      10.1500     0.769048
      10.1600     0.773809
      10.1700     0.778571
      10.1800     0.778571
      10.1900     0.778571
      10.2000     0.776191
      10.2100     0.771429
      10.2200     0.766667
      10.2300     0.761905
      10.2400     0.757143
      10.2500     0.754762
      10.2600     0.750000
      10.2700     0.742857
      10.2800     0.738095
      10.2900     0.730952
      10.3000     0.726191
      10.3100     0.719048
      10.3200     0.716667
      10.3300     0.714286
      10.3400     0.711905
      10.3500     0.711905
      10.3600     0.711905
      10.3700     0.711905
      10.3800     0.711905
      10.3900     0.709524
      10.4000     0.707143
      10.4100     0.704762
      10.4200     0.702381
      10.4300     0.700000
      10.4400     0.695238
      10.4500     0.695238
      10.4600     0.692857
      10.4700     0.692857
      10.4800     0.692857
      10.4900     0.695238
      10.5000     0.697619
      10.5100     0.700000
      10.5200     0.702381
      10.5300     0.702381
      10.5400     0.704762
      10.5500     0.707143
      10.5600     0.709524
      10.5700     0.711905
      10.5800     0.716667
      10.5900     0.719048
      10.6000     0.723810
      10.6100     0.726191
      10.6200     0.728571
      10.6300     0.730952
      10.6400     0.733333
      10.6500     0.735714
      10.6600     0.738095
      10.6700     0.740476
      10.6800     0.745238
      10.6900     0.747619
      10.7000     0.747619
      10.7100     0.750000
      10.7200     0.750000
      10.7300     0.747619
      10.7400     0.745238
      10.7500     0.742857
      10.7600     0.740476
      10.7700     0.738095
      10.7800     0.735714
      10.7900     0.733333
      10.8000     0.733333
      10.8100     0.733333
      10.8200     0.735714
      10.8300     0.738095
      10.8400     0.740476
      10.8500     0.742857
      10.8600     0.745238
      10.8700     0.745238
      10.8800     0.742857
      10.8900     0.740476
      10.9000     0.738095
      10.9100     0.733333
      10.9200     0.728571
      10.9300     0.726191
      10.9400     0.721429
      10.9500     0.716667
      10.9600     0.714286
      10.9700     0.711905
      10.9800     0.709524
      10.9900     0.709524
      11.0000     0.709524
      11.0100     0.709524
      11.0200     0.711905
      11.0300     0.714286
      11.0400     0.716667
      11.0500     0.716667
      11.0600     0.716667
      11.0700     0.714286
      11.0800     0.711905
      11.0900     0.711905
      11.1000     0.709524
      11.1100     0.709524
      11.1200     0.707143
      11.1300     0.707143
      11.1400     0.707143
      11.1500     0.704762
      11.1600     0.704762
      11.1700     0.700000
      11.1800     0.697619
      11.1900     0.692857
      11.2000     0.688095
      11.2100     0.683333
      11.2200     0.678571
      11.2300     0.673810
      11.2400     0.671429
      11.2500     0.669048
      11.2600     0.666667
      11.2700     0.666667
      11.2800     0.669048
      11.2900     0.669048
      11.3000     0.671429
      11.3100     0.673810
      11.3200     0.678571
      11.3300     0.680952
      11.3400     0.683333
      11.3500     0.685714
      11.3600     0.688095
      11.3700     0.688095
      11.3800     0.690476
      11.3900     0.690476
      11.4000     0.692857
      11.4100     0.692857
      11.4200     0.695238
      11.4300     0.697619
      11.4400     0.700000
      11.4500     0.702381
      11.4600     0.704762
      11.4700     0.709524
      11.4800     0.711905
      11.4900     0.716667
      11.5000     0.719048
      11.5100     0.723810
      11.5200     0.728571
      11.5300     0.733333
      11.5400     0.738095
      11.5500     0.742857
      11.5600     0.747619
      11.5700     0.750000
      11.5800     0.752381
      11.5900     0.754762
      11.6000     0.754762
      11.6100     0.757143
      11.6200     0.757143
      11.6300     0.759524
      11.6400     0.759524
      11.6500     0.761905
      11.6600     0.761905
      11.6700     0.764286
      11.6800     0.764286
      11.6900     0.764286
      11.7000     0.764286
      11.7100     0.761905
      11.7200     0.759524
      11.7300     0.754762
      11.7400     0.750000
      11.7500     0.747619
      11.7600     0.742857
      11.7700     0.738095
      11.7800     0.735714
      11.7900     0.733333
      11.8000     0.730952
      11.8100     0.730952
      11.8200     0.728571
      11.8300     0.728571
      11.8400     0.728571
      11.8500     0.726191
      11.8600     0.723810
      11.8700     0.721429
      11.8800     0.719048
      11.8900     0.716667
      11.9000     0.711905
      11.9100     0.709524
      11.9200     0.707143
      11.9300     0.704762
      11.9400     0.702381
      11.9500     0.702381
      11.9600     0.700000
      11.9700     0.700000
      11.9800     0.700000
      11.9900     0.697619
      12.0000     0.697619
      12.0100     0.695238
      12.0200     0.692857
      12.0300     0.690476
      12.0400     0.688095
      12.0500     0.685714
      12.0600     0.680952
      12.0700     0.678571
      12.0800     0.673810
      12.0900     0.673810
      12.1000     0.671429
      12.1100     0.671429
      12.1200     0.671429
      12.1300     0.673810
      12.1400     0.676190
      12.1500     0.678571
      12.1600     0.680952
      12.1700     0.683333
      12.1800     0.685714
      12.1900     0.688095
      12.2000     0.692857
      12.2100     0.692857
      12.2200     0.695238
      12.2300     0.697619
      12.2400     0.697619
      12.2500     0.700000
      12.2600     0.700000
      12.2700     0.700000
      12.2800     0.702381
      12.2900     0.702381
      12.3000     0.704762
      12.3100     0.707143
      12.3200     0.711905
      12.3300     0.716667
      12.3400     0.721429
      12.3500     0.726191
      12.3600     0.730952
      12.3700     0.735714
      12.3800     0.740476
      12.3900     0.747619
      12.4000     0.752381
      12.4100     0.759524
      12.4200     0.766667
      12.4300     0.771429
      12.4400     0.778571
      12.4500     0.783333
      12.4600     0.790476
      12.4700     0.795238
      12.4800     0.800000
      12.4900     0.802381
      12.5000     0.804762
      12.5100     0.807143
      12.5200     0.809524
      12.5300     0.807143
      12.5400     0.807143
      12.5500     0.804762
      12.5600     0.802381
      12.5700     0.800000
      12.5800     0.797619
      12.5900     0.795238
      12.6000     0.795238
      12.6100     0.795238
      12.6200     0.795238
      12.6300     0.797619
      12.6400     0.800000
      12.6500     0.802381
      12.6600     0.804762
      12.6700     0.804524
      12.6800     0.806905
      12.6900     0.806905
      12.7000     0.806905
      12.7100     0.806905
      12.7200     0.806905
      12.7300     0.807143
      12.7400     0.807143
      12.7500     0.807143
      12.7600     0.809524
      12.7700     0.809524
      12.7800     0.811905
      12.7900     0.814286
      12.8000     0.816667
      12.8100     0.819048
      12.8200     0.823810
      12.8300     0.828571
      12.8400     0.833333
      12.8500     0.838095
      12.8600     0.845238
      12.8700     0.850000
      12.8800     0.854762
      12.8900     0.861905
      12.9000     0.864286
      12.9100     0.869048
      12.9200     0.871429
      12.9300     0.873810
      12.9400     0.873810
      12.9500     0.876190
      12.9600     0.876190
      12.9700     0.873810
      12.9800     0.873810
      12.9900     0.873810
      13.0000     0.873810
      13.0100     0.873810
      13.0200     0.873810
      13.0300     0.876190
      13.0400     0.878571
      13.0500     0.880952
      13.0600     0.883333
      13.0700     0.888095
      13.0800     0.895238
      13.0900     0.900000
      13.1000     0.907143
      13.1100     0.914286
      13.1200     0.921429
      13.1300     0.928571
      13.1400     0.933333
      13.1500     0.940476
      13.1600     0.947619
      13.1700     0.952381
      13.1800     0.957143
      13.1900     0.961905
      13.2000     0.966667
      13.2100     0.971429
      13.2200     0.973810
      13.2300     0.976191
      13.2400     0.978571
      13.2500     0.980952
      13.2600     0.983333
      13.2700     0.985714
      13.2800     0.985714
      13.2900     0.985714
      13.3000     0.985714
      13.3100     0.985714
      13.3200     0.983333
      13.3300     0.980952
      13.3400     0.976191
      13.3500     0.973810
      13.3600     0.971429
      13.3700     0.966667
      13.3800     0.964286
      13.3900     0.961905
      13.4000     0.959524
      13.4100     0.959524
      13.4200     0.959524
      13.4300     0.959524
      13.4400     0.959524
      13.4500     0.961905
      13.4600     0.961905
      13.4700     0.964286
      13.4800     0.964286
      13.4900     0.966667
      13.5000     0.966667
      13.5100     0.966667
      13.5200     0.966667
      13.5300     0.966667
      13.5400     0.966667
      13.5500     0.966667
      13.5600     0.966667
      13.5700     0.969048
      13.5800     0.969048
      13.5900     0.971429
      13.6000     0.971429
      13.6100     0.973810
      13.6200     0.973810
      13.6300     0.976191
      13.6400     0.976191
      13.6500     0.976191
      13.6600     0.973810
      13.6700     0.973810
      13.6800     0.971429
      13.6900     0.969048
      13.7000     0.966667
      13.7100     0.964286
      13.7200     0.961905
      13.7300     0.959524
      13.7400     0.957143
      13.7500     0.954762
      13.7600     0.954762
      13.7700     0.954762
      13.7800     0.954762
      13.7900     0.954762
      13.8000     0.957143
      13.8100     0.957143
      13.8200     0.959524
      13.8300     0.961905
      13.8400     0.961905
      13.8500     0.961905
      13.8600     0.964286
      13.8700     0.964286
      13.8800     0.964286
      13.8900     0.964286
      13.9000     0.964286
      13.9100     0.966667
      13.9200     0.966667
      13.9300     0.966667
      13.9400     0.969048
      13.9500     0.971429
      13.9600     0.973810
      13.9700     0.976191
      13.9800     0.978571
      13.9900     0.980952
      14.0000     0.985714
      14.0100     0.988095
      14.0200     0.990476
      14.0300     0.992857
      14.0400     0.995238
      14.0500     0.995238
      14.0600     0.997619
      14.0700     0.997619
      14.0800     0.995238
      14.0900     0.995238
      14.1000     0.992857
      14.1100     0.992857
      14.1200     0.990476
      14.1300     0.988095
      14.1400     0.988095
      14.1500     0.988095
      14.1600     0.985714
      14.1700     0.988095
      14.1800     0.988095
      14.1900     0.990476
      14.2000     0.990476
      14.2100     0.992857
      14.2200     0.995238
      14.2300     0.995238
      14.2400     0.997619
      14.2500     0.997619
      14.2600     0.997619
      14.2700     0.995238
      14.2800     0.992857
      14.2900     0.992857
      14.3000     0.990476
      14.3100     0.988095
      14.3200     0.988095
      14.3300     0.985714
      14.3400     0.985714
      14.3500     0.985714
      14.3600     0.988095
      14.3700     0.988095
      14.3800     0.990476
      14.3900     0.992857
      14.4000     0.995238
      14.4100     0.995238
      14.4200     0.997619
      14.4300      1.00000
      14.4400      1.00000
      14.4500      1.00000
      14.4600      1.00000
      14.4700     0.997619
      14.4800     0.995238
      14.4900     0.992857
      14.5000     0.990476
      14.5100     0.988095
      14.5200     0.985714
      14.5300     0.983333
      14.5400     0.980952
      14.5500     0.978571
      14.5600     0.976191
      14.5700     0.973810
      14.5800     0.971429
      14.5900     0.969048
      14.6000     0.966667
      14.6100     0.964286
      14.6200     0.961905
      14.6300     0.959524
      14.6400     0.957143
      14.6500     0.954762
      14.6600     0.952381
      14.6700     0.950000
      14.6800     0.947619
      14.6900     0.947619
      14.7000     0.945238
      14.7100     0.945238
      14.7200     0.942857
      14.7300     0.942857
      14.7400     0.940476
      14.7500     0.940476
      14.7600     0.940476
      14.7700     0.938095
      14.7800     0.935714
      14.7900     0.933333
      14.8000     0.930952
      14.8100     0.930952
      14.8200     0.926190
      14.8300     0.923810
      14.8400     0.921429
      14.8500     0.919048
      14.8600     0.916667
      14.8700     0.914286
      14.8800     0.911905
      14.8900     0.909524
      14.9000     0.907143
      14.9100     0.904762
      14.9200     0.902381
      14.9300     0.897619
      14.9400     0.895238
      14.9500     0.892857
      14.9600     0.888095
      14.9700     0.885714
      14.9800     0.883333
      14.9900     0.878571
      15.0000     0.876190
      15.0100     0.873810
      15.0200     0.871429
      15.0300     0.869048
      15.0400     0.866667
      15.0500     0.864286
      15.0600     0.861905
      15.0700     0.859524
      15.0800     0.857143
      15.0900     0.854762
      15.1000     0.850000
      15.1100     0.847619
      15.1200     0.845238
      15.1300     0.840476
      15.1400     0.835714
      15.1500     0.830952
      15.1600     0.826191
      15.1700     0.819048
      15.1800     0.811905
      15.1900     0.804762
      15.2000     0.797619
      15.2100     0.790476
      15.2200     0.780952
      15.2300     0.773809
      15.2400     0.764286
      15.2500     0.757143
      15.2600     0.750000
      15.2700     0.740476
      15.2800     0.733333
      15.2900     0.726191
      15.3000     0.719048
      15.3100     0.711905
      15.3200     0.707143
      15.3300     0.700000
      15.3400     0.692857
      15.3500     0.685714
      15.3600     0.678571
      15.3700     0.671429
      15.3800     0.664524
      15.3900     0.657381
      15.4000     0.650238
      15.4100     0.643095
      15.4200     0.635952
      15.4300     0.630952
      15.4400     0.623810
      15.4500     0.619048
      15.4600     0.616667
      15.4700     0.611905
      15.4800     0.609524
      15.4900     0.607143
      15.5000     0.604762
      15.5100     0.604762
      15.5200     0.604762
      15.5300     0.602381
      15.5400     0.602381
      15.5500     0.602381
      15.5600     0.602381
      15.5700     0.602381
      15.5800     0.604762
      15.5900     0.604762
      15.6000     0.604762
      15.6100     0.604762
      15.6200     0.607143
      15.6300     0.607143
      15.6400     0.609524
      15.6500     0.609524
      15.6600     0.611905
      15.6700     0.611905
      15.6800     0.614286
      15.6900     0.614286
      15.7000     0.614286
      15.7100     0.616667
      15.7200     0.616667
      15.7300     0.616667
      15.7400     0.616667
      15.7500     0.614286
      15.7600     0.614286
      15.7700     0.614286
      15.7800     0.611905
      15.7900     0.611905
      15.8000     0.609524
      15.8100     0.607143
      15.8200     0.607143
      15.8300     0.604762
      15.8400     0.602381
      15.8500     0.600000
      15.8600     0.595238
      15.8700     0.592857
      15.8800     0.590476
      15.8900     0.585714
      15.9000     0.583333
      15.9100     0.578571
      15.9200     0.573810
      15.9300     0.571429
      15.9400     0.566667
      15.9500     0.561905
      15.9600     0.559524
      15.9700     0.554762
      15.9800     0.552381
      15.9900     0.550000
      16.0000     0.547619
      16.0100     0.545238
      16.0200     0.542857
      16.0300     0.540476
      16.0400     0.540476
      16.0500     0.538095
      16.0600     0.538095
      16.0700     0.538095
      16.0800     0.538095
      16.0900     0.538095
      16.1000     0.535714
      16.1100     0.535714
      16.1200     0.535714
      16.1300     0.533333
      16.1400     0.533333
      16.1500     0.533333
      16.1600     0.530952
      16.1700     0.528571
      16.1800     0.528571
      16.1900     0.526191
      16.2000     0.523810
      16.2100     0.521429
      16.2200     0.519048
      16.2300     0.516667
      16.2400     0.511905
      16.2500     0.509524
      16.2600     0.504762
      16.2700     0.500000
      16.2800     0.495238
      16.2900     0.490476
      16.3000     0.483333
      16.3100     0.476191
      16.3200     0.469286
      16.3300     0.462143
      16.3400     0.455000
      16.3500     0.445476
      16.3600     0.435952
      16.3700     0.426429
      16.3800     0.416905
      16.3900     0.407381
      16.4000     0.397857
      16.4100     0.385952
      16.4200     0.376429
      16.4300     0.364524
      16.4400     0.355000
      16.4500     0.343095
      16.4600     0.331190
      16.4700     0.321667
      16.4800     0.309762
      16.4900     0.297857
      16.5000     0.288333
      16.5100     0.276429
      16.5200     0.266905
      16.5300     0.255000
      16.5400     0.245476
      16.5500     0.233952
      16.5600     0.223690
      16.5700     0.213690
      16.5800     0.204143
      16.5900     0.194381
      16.6000     0.185333
      16.6100     0.176548
      16.6200     0.167976
      16.6300     0.159643
      16.6400     0.151571
      16.6500     0.144190
      16.6600     0.136810
      16.6700     0.129667
      16.6800     0.123214
      16.6900     0.117024
      16.7000     0.111048
      16.7100     0.105548
      16.7200     0.100071
      16.7300    0.0950476
      16.7400    0.0905238
      16.7500    0.0857619
      16.7600    0.0817143
      16.7700    0.0779048
      16.7800    0.0740952
      16.7900    0.0707619
      16.8000    0.0674524
      16.8100    0.0643333
      16.8200    0.0614762
      16.8300    0.0586190
      16.8400    0.0562381
      16.8500    0.0538333
      16.8600    0.0514524
      16.8700    0.0493095
      16.8800    0.0471429
      16.8900    0.0452381
      16.9000    0.0435476
      16.9100    0.0416429
      16.9200    0.0401905
      16.9300    0.0385238
      16.9400    0.0370952
      16.9500    0.0359048
      16.9600    0.0344762
      16.9700    0.0332857
      16.9800    0.0320952
      16.9900    0.0311429
      17.0000    0.0301905
      17.0100    0.0292381
      17.0200    0.0282857
      17.0300    0.0273333
      17.0400    0.0265952
      17.0500    0.0256667
      17.0600    0.0249286
      17.0700    0.0242143
      17.0800    0.0234310
      17.0900    0.0226833
      17.1000    0.0219524
      17.1100    0.0212000
      17.1200    0.0204310
      17.1300    0.0196762
      17.1400    0.0189024
      17.1500    0.0180857
      17.1600    0.0172881
      17.1700    0.0164405
      17.1800    0.0155690
      17.1900    0.0146929
      17.2000    0.0138214
      17.2100    0.0129238
      17.2200    0.0120286
      17.2300    0.0111286
      17.2400    0.0102524
      17.2500   0.00935000
      17.2600   0.00849286
      17.2700   0.00763333
      17.2800   0.00677143
      17.2900   0.00594048
      17.3000   0.00517857
      17.3100   0.00439762
      17.3200   0.00369762
      17.3300   0.00297619
      17.3400   0.00232476
      17.3500   0.00157214
      17.3600   0.00166738
      17.3700   0.00105333
      17.3800   0.00548571
      17.3900   0.00587857
      17.4000   0.00591905
      17.4100   0.00558333
      17.4200   0.00483095
      17.4300   0.00378571
      17.4400   0.00252143
      17.4500   0.00104119
      17.4600   0.00270476
      17.4700  0.000557857
      17.4800   0.00153119
      17.4900   0.00209595
      17.5000   0.00240476
      17.5100   0.00325000
      17.5200   0.00316190
      17.5300   0.00261429
      17.5400   0.00219238
      17.5500   0.00183119
      17.5600   0.00150381
      17.5700   0.00119786
      17.5800  0.000865000
      17.5900  0.000998571
      17.6000  0.000903571
      17.6100  0.000823333
      17.6200  0.000755000
      17.6300  0.000699048
      17.6400  0.000630476
      17.6500  0.000520000
      17.6600  0.000487143
      17.6700  0.000445238
      17.6800  0.000403571
      17.6900  0.000363333
      17.7000  0.000325476
      17.7100  0.000283095
      17.7200  0.000264286
      17.7300  0.000246429
      17.7400  0.000231571
      17.7500  0.000218524
      17.7600  0.000206381
      17.7700  0.000193238
      17.7800  0.000182048
      17.7900  0.000172048
      17.8000  0.000163238
      17.8100  0.000155738
      17.8200  0.000148595
      17.8300  0.000142190
      17.8400  0.000136357
      17.8500  0.000131167
      17.8600  0.000126214
      17.8700  0.000121810
      17.8800  0.000117333
      17.8900  0.000115167
      17.9000  0.000112929
      17.9100  0.000110905
      17.9200  0.000108833
      17.9300  0.000107000
      17.9400  0.000105119
      17.9500  0.000103238
      17.9600  0.000115952
      17.9700  0.000119738
      17.9800  0.000120643
      17.9900  0.000120071
      18.0000  0.000119310
      18.0100  0.000117905
      18.0200  0.000117310
      18.0300  0.000114643
      18.0400  0.000109714
      18.0500  9.51190e-05
      18.0600  9.56191e-05
      18.0700  9.59762e-05
      18.0800  9.61191e-05
      18.0900  9.65714e-05
      18.1000  9.67619e-05
      18.1100  9.72619e-05
      18.1200  9.75000e-05
      18.1300  9.78571e-05
      18.1400  9.79286e-05
      18.1500  9.78571e-05
      18.1600  9.80000e-05
      18.1700  9.81191e-05
      18.1800  9.80714e-05
      18.1900  0.000112595
      18.2000  0.000118024
      18.2100  0.000120262
      18.2200  0.000120429
      18.2300  0.000119548
      18.2400  0.000118143
      18.2500  0.000115500
      18.2600  0.000112024
      18.2700  0.000107190
      18.2800  0.000101905
      18.2900  9.40476e-05
      18.3000  9.30476e-05
      18.3100  9.18095e-05
      18.3200  9.03333e-05
      18.3300  8.91191e-05
      18.3400  8.79048e-05
      18.3500  8.67143e-05
      18.3600  8.55000e-05
      18.3700  8.43095e-05
      18.3800  8.31191e-05
      18.3900  8.17143e-05
      18.4000  7.98810e-05
      18.4100  7.80476e-05
      18.4200  7.62381e-05
      18.4300  7.46429e-05
      18.4400  7.28095e-05
      18.4500  6.79286e-05
      18.4600  7.59048e-05
      18.4700  7.76667e-05
      18.4800  7.79524e-05
      18.4900  7.75000e-05
      18.5000  7.66429e-05
      18.5100  7.54524e-05
      18.5200  7.38095e-05
      18.5300  7.23333e-05
      18.5400  7.05952e-05
      18.5500  6.84048e-05
      18.5600  6.61429e-05
      18.5700  6.36667e-05
      18.5800  6.11667e-05
      18.5900  5.92857e-05
      18.6000  5.84048e-05
      18.6100  5.81190e-05
      18.6200  5.74048e-05
      18.6300  5.60238e-05
      18.6400  5.30000e-05
      18.6500  4.73810e-05
      18.6600  4.68571e-05
      18.6700  4.63333e-05
      18.6800  4.60476e-05
      18.6900  4.55714e-05
      18.7000  4.50714e-05
      18.7100  4.48571e-05
      18.7200  4.44048e-05
      18.7300  4.42143e-05
      18.7400  4.94286e-05
      18.7500  5.06905e-05
      18.7600  5.10238e-05
      18.7700  5.05476e-05
      18.7800  4.93810e-05
      18.7900  4.69286e-05
      18.8000  4.18571e-05
      18.8100  4.14762e-05
      18.8200  4.13333e-05
      18.8300  4.09286e-05
      18.8400  4.05476e-05
      18.8500  4.01667e-05
      18.8600  4.00000e-05
      18.8700  3.96191e-05
      18.8800  3.92143e-05
      18.8900  3.88095e-05
      18.9000  3.86190e-05
      18.9100  3.79524e-05
      18.9200  4.10238e-05
      18.9300  4.22857e-05
      18.9400  4.30952e-05
      18.9500  4.35714e-05
      18.9600  4.36190e-05
      18.9700  4.32381e-05
      18.9800  4.24286e-05
      18.9900  4.00238e-05
      19.0000  3.45238e-05
      19.0100  3.40714e-05
      19.0200  3.36190e-05
      19.0300  3.31667e-05
      19.0400  3.27143e-05
      19.0500  3.22619e-05
      19.0600  3.20238e-05
      19.0700  3.15476e-05
      19.0800  3.18095e-05
      19.0900  3.59762e-05
      19.1000  3.62619e-05
      19.1100  3.60238e-05
      19.1200  3.53571e-05
      19.1300  3.42143e-05
      19.1400  3.30714e-05
      19.1500  3.19762e-05
      19.1600  3.09524e-05
      19.1700  2.99762e-05
      19.1800  2.95000e-05
      19.1900  2.92619e-05
      19.2000  2.92381e-05
      19.2100  2.94762e-05
      19.2200  2.98810e-05
      19.2300  3.04048e-05
      19.2400  3.08810e-05
      19.2500  3.15000e-05
      19.2600  3.17619e-05
      19.2700  3.18571e-05
      19.2800  3.18095e-05
      19.2900  3.17619e-05
      19.3000  3.14048e-05
      19.3100  3.09048e-05
      19.3200  3.02857e-05
      19.3300  2.96191e-05
      19.3400  2.91190e-05
      19.3500  2.85000e-05
      19.3600  2.82143e-05
      19.3700  2.77857e-05
      19.3800  2.75952e-05
      19.3900  2.71667e-05
      19.4000  2.68571e-05
      19.4100  2.62619e-05
      19.4200  2.57857e-05
      19.4300  2.50000e-05
      19.4400  2.44048e-05
      19.4500  2.39524e-05
      19.4600  2.35619e-05
      19.4700  2.37238e-05
      19.4800  2.38810e-05
      19.4900  2.43095e-05
      19.5000  2.45238e-05
      19.5100  2.48810e-05
      19.5200  2.49286e-05
      19.5300  2.50714e-05
      19.5400  2.48810e-05
      19.5500  2.47619e-05
      19.5600  2.42619e-05
      19.5700  2.38095e-05
      19.5800  2.29833e-05
      19.5900  2.21738e-05
      19.6000  2.09333e-05
      19.6100  1.98286e-05
      19.6200  1.92405e-05
      19.6300  1.97786e-05
      19.6400  2.03548e-05
      19.6500  2.07357e-05
      19.6600  2.09714e-05
      19.6700  2.10357e-05
      19.6800  2.10190e-05
      19.6900  2.09238e-05
      19.7000  2.07976e-05
      19.7100  2.06929e-05
      19.7200  2.05524e-05
      19.7300  2.04262e-05
      19.7400  2.03048e-05
      19.7500  2.02048e-05
      19.7600  2.00691e-05
      19.7700  1.99190e-05
      19.7800  1.97405e-05
      19.7900  1.95595e-05
      19.8000  1.93452e-05
      19.8100  1.90833e-05
      19.8200  1.88571e-05
      19.8300  1.86476e-05
      19.8400  1.84881e-05
      19.8500  1.84000e-05
      19.8600  1.83571e-05
      19.8700  1.83619e-05
      19.8800  1.83476e-05
      19.8900  1.83738e-05
      19.9000  1.83381e-05
      19.9100  1.82929e-05
      19.9200  1.81762e-05
      19.9300  1.79071e-05
      19.9400  1.74595e-05
      19.9500  1.65619e-05
      19.9600  1.54381e-05
      19.9700  1.62881e-05
      19.9800  1.76095e-05
      19.9900  1.85690e-05
      20.0000  1.89857e-05
      20.0100  1.80024e-05
      20.0200  1.64500e-05
      20.0300  1.55238e-05
      20.0400  1.54000e-05
      20.0500  1.52976e-05
      20.0600  1.51714e-05
      20.0700  1.50452e-05
      20.0800  1.49167e-05
      20.0900  1.48119e-05
      20.1000  1.47071e-05
      20.1100  1.45976e-05
      20.1200  1.52714e-05
      20.1300  1.63381e-05
      20.1400  1.67929e-05
      20.1500  1.70167e-05
      20.1600  1.70500e-05
      20.1700  1.70071e-05
      20.1800  1.69262e-05
      20.1900  1.68429e-05
      20.2000  1.66762e-05
      20.2100  1.64310e-05
      20.2200  1.61595e-05
      20.2300  1.59024e-05
      20.2400  1.55857e-05
      20.2500  1.51929e-05
      20.2600  1.47357e-05
      20.2700  1.40286e-05
      20.2800  1.33476e-05
      20.2900  1.42524e-05
      20.3000  1.47310e-05
      20.3100  1.49381e-05
      20.3200  1.50333e-05
      20.3300  1.50095e-05
      20.3400  1.49429e-05
      20.3500  1.48833e-05
      20.3600  1.47214e-05
      20.3700  1.42714e-05
      20.3800  1.25786e-05
      20.3900  1.20262e-05
      20.4000  1.19595e-05
      20.4100  1.18929e-05
      20.4200  1.18286e-05
      20.4300  1.18167e-05
      20.4400  1.33381e-05
      20.4500  1.36667e-05
      20.4600  1.37452e-05
      20.4700  1.37929e-05
      20.4800  1.38429e-05
      20.4900  1.38881e-05
      20.5000  1.39143e-05
      20.5100  1.39214e-05
      20.5200  1.39738e-05
      20.5300  1.39524e-05
      20.5400  1.37690e-05
      20.5500  1.35667e-05
      20.5600  1.33429e-05
      20.5700  1.30381e-05
      20.5800  1.25357e-05
      20.5900  1.09571e-05
      20.6000  1.14857e-05
      20.6100  1.14762e-05
      20.6200  1.14929e-05
      20.6300  1.14619e-05
      20.6400  1.14571e-05
      20.6500  1.14524e-05
      20.6600  1.14500e-05
      20.6700  1.14476e-05
      20.6800  1.33119e-05
      20.6900  1.39405e-05
      20.7000  1.41714e-05
      20.7100  1.42143e-05
      20.7200  1.41143e-05
      20.7300  1.40024e-05
      20.7400  1.39167e-05
      20.7500  1.38262e-05
      20.7600  1.37524e-05
      20.7700  1.36524e-05
      20.7800  1.35405e-05
      20.7900  1.36024e-05
      20.8000  1.37190e-05
      20.8100  1.38167e-05
      20.8200  1.39500e-05
      20.8300  1.39452e-05
      20.8400  1.37714e-05
      20.8500  1.35595e-05
      20.8600  1.32690e-05
      20.8700  1.29357e-05
      20.8800  1.29595e-05
      20.8900  1.32048e-05
      20.9000  1.33262e-05
      20.9100  1.34286e-05
      20.9200  1.34286e-05
      20.9300  1.32762e-05
      20.9400  1.30643e-05
      20.9500  1.28619e-05
      20.9600  1.24976e-05
      20.9700  1.15405e-05
      20.9800  1.09262e-05
      20.9900  1.08881e-05
      21.0000  1.08762e-05
      21.0100  1.08619e-05
      21.0200  1.08262e-05
      21.0300  1.19024e-05
      21.0400  1.27381e-05
      21.0500  1.30952e-05
      21.0600  1.32905e-05
      21.0700  1.34190e-05
      21.0800  1.35810e-05
      21.0900  1.36167e-05
      21.1000  1.34619e-05
      21.1100  1.31690e-05
      21.1200  1.27905e-05
      21.1300  1.20929e-05
      21.1400  1.05214e-05
      21.1500  1.05048e-05
      21.1600  1.04905e-05
      21.1700  1.04690e-05
      21.1800  1.04286e-05
      21.1900  1.04071e-05
      21.2000  1.03881e-05
      21.2100  1.03452e-05
      21.2200  1.03238e-05
      21.2300  1.03048e-05
      21.2400  1.02833e-05
      21.2500  1.02381e-05
      21.2600  1.02452e-05
      21.2700  1.02524e-05
      21.2800  1.01429e-05
      21.2900  1.13786e-05
      21.3000  1.18905e-05
      21.3100  1.21571e-05
      21.3200  1.22238e-05
      21.3300  1.21333e-05
      21.3400  1.18524e-05
      21.3500  1.13810e-05
      21.3600  1.12976e-05
      21.3700  1.18738e-05
      21.3800  1.23714e-05
      21.3900  1.27595e-05
      21.4000  1.30643e-05
      21.4100  1.30976e-05
      21.4200  1.28571e-05
      21.4300  1.24476e-05
      21.4400  1.14476e-05
      21.4500  1.01429e-05
      21.4600  1.01548e-05
      21.4700  1.12952e-05
      21.4800  1.22000e-05
      21.4900  1.27667e-05
      21.5000  1.30238e-05
      21.5100  1.27310e-05
      21.5200  1.16167e-05
      21.5300  1.01310e-05
      21.5400  1.01405e-05
      21.5500  1.01214e-05
      21.5600  1.01190e-05
      21.5700  1.25048e-05
      21.5800  1.32524e-05
      21.5900  1.36286e-05
      21.6000  1.37262e-05
      21.6100  1.35357e-05
      21.6200  1.32143e-05
      21.6300  1.28571e-05
      21.6400  1.25119e-05
      21.6500  1.22714e-05
      21.6600  1.22738e-05
      21.6700  1.22190e-05
      21.6800  1.22214e-05
      21.6900  1.25524e-05
      21.7000  1.29905e-05
      21.7100  1.33786e-05
      21.7200  1.37476e-05
      21.7300  1.39786e-05
      21.7400  1.39071e-05
      21.7500  1.36548e-05
      21.7600  1.32619e-05
      21.7700  1.25095e-05
      21.7800  1.13333e-05
      21.7900  1.16071e-05
      21.8000  1.22714e-05
      21.8100  1.26190e-05
      21.8200  1.30238e-05
      21.8300  1.31286e-05
      21.8400  1.25333e-05
      21.8500  1.03905e-05
      21.8600  9.79286e-06
      21.8700  9.79286e-06
      21.8800  9.75000e-06
      21.8900  9.75238e-06
      21.9000  9.75476e-06
      21.9100  9.73095e-06
      21.9200  9.71191e-06
      21.9300  9.68571e-06
      21.9400  9.68810e-06
      21.9500  9.64286e-06
      21.9600  9.64524e-06
      21.9700  9.60238e-06
      21.9800  1.17333e-05
      21.9900  1.27071e-05
      22.0000  1.32929e-05
      22.0100  1.37476e-05
      22.0200  1.39357e-05
      22.0300  1.39119e-05
      22.0400  1.37762e-05
      22.0500  1.35286e-05
      22.0600  1.32500e-05
      22.0700  1.31357e-05
      22.0800  1.32381e-05
      22.0900  1.33929e-05
      22.1000  1.35595e-05
      22.1100  1.37786e-05
      22.1200  1.37429e-05
      22.1300  1.33476e-05
      22.1400  1.27595e-05
      22.1500  1.19833e-05
      22.1600  1.05643e-05
      22.1700  8.67619e-06
      22.1800  8.63333e-06
      22.1900  8.57381e-06
      22.2000  8.53333e-06
      22.2100  8.49286e-06
      22.2200  8.45000e-06
      22.2300  8.40952e-06
      22.2400  8.35238e-06
      22.2500  8.31190e-06
      22.2600  8.29524e-06
      22.2700  8.25952e-06
      22.2800  8.22381e-06
      22.2900  8.18571e-06
      22.3000  8.85714e-06
      22.3100  1.16500e-05
      22.3200  1.27167e-05
      22.3300  1.33500e-05
      22.3400  1.38452e-05
      22.3500  1.43452e-05
      22.3600  1.47071e-05
      22.3700  1.46262e-05
      22.3800  1.41667e-05
      22.3900  1.32476e-05
      22.4000  1.10452e-05
      22.4100  7.99286e-06
      22.4200  7.98571e-06
      22.4300  8.00000e-06
      22.4400  8.00476e-06
      22.4500  9.38333e-06
      22.4600  1.14548e-05
      22.4700  1.16143e-05
      22.4800  1.01857e-05
      22.4900  8.03095e-06
      22.5000  8.05000e-06
      22.5100  8.01667e-06
      22.5200  8.03810e-06
      22.5300  8.03571e-06
      22.5400  8.04048e-06
      22.5500  8.06905e-06
      22.5600  8.10000e-06
      22.5700  8.15000e-06
      22.5800  8.17619e-06
      22.5900  8.20952e-06
      22.6000  8.24286e-06
      22.6100  8.27619e-06
      22.6200  8.32381e-06
      22.6300  8.35714e-06
      22.6400  8.42857e-06
      22.6500  8.44762e-06
      22.6600  8.48095e-06
      22.6700  8.51429e-06
      22.6800  8.55000e-06
      22.6900  8.60476e-06
      22.7000  8.62381e-06
      22.7100  8.65952e-06
      22.7200  8.71429e-06
      22.7300  8.75000e-06
      22.7400  8.79048e-06
      22.7500  8.82619e-06
      22.7600  8.82381e-06
      22.7700  8.85952e-06
      22.7800  8.88095e-06
      22.7900  8.90000e-06
      22.8000  8.92143e-06
      22.8100  8.94048e-06
      22.8200  8.97857e-06
      22.8300  9.00000e-06
      22.8400  9.02381e-06
      22.8500  9.04524e-06
      22.8600  9.08333e-06
      22.8700  9.10476e-06
      22.8800  9.15238e-06
      22.8900  9.19048e-06
      22.9000  9.20000e-06
      22.9100  9.24048e-06
      22.9200  9.28572e-06
      22.9300  9.32619e-06
      22.9400  9.35476e-06
      22.9500  9.36190e-06
      22.9600  9.36667e-06
      22.9700  9.38333e-06
      22.9800  9.37381e-06
      22.9900  9.36429e-06
      23.0000  9.40476e-06
      23.0100  9.39524e-06
      23.0200  1.12024e-05
      23.0300  1.49000e-05
      23.0400  1.40905e-05
      23.0500  9.43095e-06
      23.0600  9.42619e-06
      23.0700  9.45000e-06
      23.0800  9.44762e-06
      23.0900  9.46190e-06
      23.1000  9.47857e-06
      23.1100  9.52143e-06
      23.1200  9.53810e-06
      23.1300  9.55476e-06
      23.1400  9.59048e-06
      23.1500  9.62381e-06
      23.1600  1.63167e-05
      23.1700  2.20881e-05
      23.1800  2.61429e-05
      23.1900  2.91905e-05
      23.2000  3.02381e-05
      23.2100  2.97619e-05
      23.2200  2.87857e-05
      23.2300  2.78333e-05
      23.2400  2.66190e-05
      23.2500  2.51667e-05
      23.2600  2.40000e-05
      23.2700  2.30357e-05
      23.2800  2.17119e-05
      23.2900  1.98643e-05
      23.3000  1.74357e-05
      23.3100  1.47952e-05
      23.3200  1.26119e-05
      23.3300  9.74762e-06
      23.3400  1.05000e-05
      23.3500  1.05714e-05
      23.3600  1.06357e-05
      23.3700  1.07095e-05
      23.3800  1.07571e-05
      23.3900  7.95238e-06
      23.4000  1.20905e-05
      23.4100  1.40524e-05
      23.4200  1.50690e-05
      23.4300  1.51000e-05
      23.4400  1.48857e-05
      23.4500  1.53929e-05
      23.4600  1.49738e-05
      23.4700  8.53333e-06
      23.4800  1.14048e-05
      23.4900  1.14833e-05
      23.5000  1.15452e-05
      23.5100  1.16190e-05
      23.5200  1.16952e-05
      23.5300  1.17810e-05
      23.5400  1.18667e-05
      23.5500  1.19548e-05
      23.5600  1.20262e-05
      23.5700  1.21048e-05
      23.5800  1.21905e-05
      23.5900  1.22976e-05
      23.6000  1.24024e-05
      23.6100  1.25071e-05
      23.6200  1.26119e-05
      23.6300  1.27000e-05
      23.6400  1.28119e-05
      23.6500  1.29119e-05
      23.6600  1.30214e-05
      23.6700  1.31190e-05
      23.6800  1.32381e-05
      23.6900  1.59952e-05
      23.7000  2.15690e-05
      23.7100  2.53095e-05
      23.7200  2.84048e-05
      23.7300  3.09762e-05
      23.7400  3.26905e-05
      23.7500  3.28333e-05
      23.7600  2.96429e-05
      23.7700  1.97310e-05
      23.7800  1.44333e-05
      23.7900  1.45762e-05
      23.8000  1.47357e-05
      23.8100  1.48929e-05
      23.8200  1.50619e-05
      23.8300  1.52429e-05
      23.8400  2.63333e-05
      23.8500  3.44762e-05
      23.8600  3.84286e-05
      23.8700  4.00238e-05
      23.8800  4.00000e-05
      23.8900  3.89762e-05
      23.9000  3.82143e-05
      23.9100  3.74048e-05
      23.9200  3.49762e-05
      23.9300  3.02857e-05
      23.9400  2.25381e-05
      23.9500  1.74190e-05
      23.9600  1.76119e-05
      23.9700  1.78024e-05
      23.9800  1.79929e-05
      23.9900  1.81952e-05
      24.0000  1.00024e-05
      24.0100  3.07857e-05
      24.0200  3.98333e-05
      24.0300  4.56190e-05
      24.0400  4.71191e-05
      24.0500  4.55000e-05
      24.0600  4.38095e-05
      24.0700  4.27619e-05
      24.0800  4.15952e-05
      24.0900  4.02619e-05
      24.1000  3.93810e-05
      24.1100  3.92381e-05
      24.1200  3.89286e-05
      24.1300  3.86190e-05
      24.1400  3.82381e-05
      24.1500  3.83810e-05
      24.1600  3.90000e-05
      24.1700  4.03333e-05
      24.1800  4.19048e-05
      24.1900  4.33810e-05
      24.2000  4.36190e-05
      24.2100  4.22143e-05
      24.2200  3.79048e-05
      24.2300  2.75000e-05
      24.2400  2.30762e-05
      24.2500  2.34119e-05
      24.2600  2.36667e-05
      24.2700  2.40000e-05
      24.2800  2.42381e-05
      24.2900  2.45952e-05
      24.3000  2.49286e-05
      24.3100  3.64762e-05
      24.3200  4.45714e-05
      24.3300  4.75238e-05
      24.3400  4.76667e-05
      24.3500  4.66429e-05
      24.3600  4.49762e-05
      24.3700  4.27619e-05
      24.3800  4.09286e-05
      24.3900  4.04762e-05
      24.4000  4.14048e-05
      24.4100  4.27619e-05
      24.4200  4.38095e-05
      24.4300  4.43571e-05
      24.4400  4.52143e-05
      24.4500  4.79524e-05
      24.4600  5.20238e-05
      24.4700  5.58571e-05
      24.4800  5.91905e-05
      24.4900  6.25952e-05
      24.5000  6.56905e-05
      24.5100  6.66905e-05
      24.5200  6.48333e-05
      24.5300  6.13810e-05
      24.5400  5.80714e-05
      24.5500  5.47381e-05
      24.5600  5.05476e-05
      24.5700  4.51905e-05
      24.5800  3.88333e-05
      24.5900  2.89286e-05
      24.6000  3.94524e-05
      24.6100  4.03333e-05
      24.6200  4.10952e-05
      24.6300  4.19762e-05
      24.6400  2.01214e-05
      24.6500  5.02619e-05
      24.6600  6.65476e-05
      24.6700  7.78095e-05
      24.6800  8.49524e-05
      24.6900  8.80000e-05
      24.7000  8.78095e-05
      24.7100  8.44524e-05
      24.7200  7.87381e-05
      24.7300  7.07381e-05
      24.7400  6.24762e-05
      24.7500  5.53571e-05
      24.7600  5.10476e-05
      24.7700  4.87143e-05
      24.7800  4.71191e-05
      24.7900  4.37619e-05
      24.8000  3.95952e-05
      24.8100  4.03571e-05
      24.8200  4.76667e-05
      24.8300  5.54524e-05
      24.8400  6.24048e-05
      24.8500  6.99286e-05
      24.8600  7.88810e-05
      24.8700  8.35714e-05
      24.8800  8.00476e-05
      24.8900  6.81905e-05
      24.9000  5.11667e-05
      24.9100  8.59762e-06
      24.9200  0.000111286
      24.9300  0.000116810
      24.9400  0.000123714
      24.9500  0.000131381
      24.9600  0.000140071
      24.9700  0.000147976
      24.9800  0.000156952
      24.9900  0.000166905
      25.0000  0.000177143
      25.0100  0.000190405
      25.0200  0.000202833
      25.0300  0.000216452
      25.0400  0.000231262
      25.0500  0.000249048
      25.0600  0.000262619
      25.0700  0.000280952
      25.0800  0.000299524
      25.0900  0.000320714
      25.1000  0.000340952
      25.1100  0.000364762
      25.1200  6.41905e-05
      25.1300  8.68571e-05
      25.1400  9.78333e-05
      25.1500  0.000102048
      25.1600  0.000100667
      25.1700  0.000100929
      25.1800  0.000118286
      25.1900  0.000154262
      25.2000  0.000194810
      25.2100  0.000233929
      25.2200  0.000273333
      25.2300  0.000314286
      25.2400  0.000349048
      25.2500  0.000370952
      25.2600  0.000380714
      25.2700  0.000383810
      25.2800  0.000386905
      25.2900  0.000390952
      25.3000  0.000395476
      25.3100  0.000396667
      25.3200  0.000385952
      25.3300  0.000364762
      25.3400  0.000341190
      25.3500  0.000315714
      25.3600  0.000281190
      25.3700  0.000240952
      25.3800  0.000226714
      25.3900  0.000261429
      25.4000  0.000308810
      25.4100  0.000343571
      25.4200  0.000366905
      25.4300  0.000386667
      25.4400  0.000407619
      25.4500  0.000431190
      25.4600  0.000455952
      25.4700  0.000478333
      25.4800  0.000496429
      25.4900  0.000510714
      25.5000  0.000523333
      25.5100  0.000536190
      25.5200  0.000544524
      25.5300  0.000553095
      25.5400  0.000560476
      25.5500  0.000565000
      25.5600  0.000569048
      25.5700  0.000567857
      25.5800  0.000564286
      25.5900  0.000557381
      25.6000  0.000547857
      25.6100  0.000538810
      25.6200  0.000530952
      25.6300  0.000524048
      25.6400  0.000517381
      25.6500  0.000510714
      25.6600  0.000505000
      25.6700  0.000498810
      25.6800  0.000495952
      25.6900  0.000492381
      25.7000  0.000485476
      25.7100  0.000470952
      25.7200  0.000452381
      25.7300  0.000434048
      25.7400  0.000415476
      25.7500  0.000396191
      25.7600  0.000375476
      25.7700  0.000363333
      25.7800  0.000365238
      25.7900  0.000372857
      25.8000  0.000378571
      25.8100  0.000381667
      25.8200  0.000386190
      25.8300  0.000390476
      25.8400  0.000392619
      25.8500  0.000390714
      25.8600  0.000386667
      25.8700  0.000383810
      25.8800  0.000381667
      25.8900  0.000378571
      25.9000  0.000376190
      25.9100  0.000371667
      25.9200  0.000364762
      25.9300  0.000356905
      25.9400  0.000349524
      25.9500  0.000341429
      25.9600  0.000334524
      25.9700  0.000329524
      25.9800  0.000325714
      25.9900  0.000324524
      26.0000  0.000323571
      26.0100  0.000321667
      26.0200  0.000320952
      26.0300  0.000321905
      26.0400  0.000323810
      26.0500  0.000327619
      26.0600  0.000332143
      26.0700  0.000338333
      26.0800  0.000347381
      26.0900  0.000354048
      26.1000  0.000356905
      26.1100  0.000353095
      26.1200  0.000344762
      26.1300  0.000334286
      26.1400  0.000321429
      26.1500  0.000307857
      26.1600  0.000293810
      26.1700  0.000280000
      26.1800  0.000267619
      26.1900  0.000256905
      26.2000  0.000246429
      26.2100  0.000236000
      26.2200  0.000221286
      26.2300  0.000203595
      26.2400  0.000191667
      26.2500  0.000194548
      26.2600  0.000208929
      26.2700  0.000224000
      26.2800  0.000235000
      26.2900  0.000245952
      26.3000  0.000257857
      26.3100  0.000268095
      26.3200  0.000272857
      26.3300  0.000272619
      26.3400  0.000272381
      26.3500  0.000272143
      26.3600  0.000273095
      26.3700  0.000274048
      26.3800  0.000272857
      26.3900  0.000275952
      26.4000  0.000279524
      26.4100  0.000285238
      26.4200  0.000288810
      26.4300  0.000292143
      26.4400  0.000295238
      26.4500  0.000293810
      26.4600  0.000288095
      26.4700  0.000275952
      26.4800  0.000258095
      26.4900  0.000236595
      26.5000  0.000214643
      26.5100  0.000190238
      26.5200  0.000162095
      26.5300  0.000128595
      26.5400  8.49286e-05
      26.5500  0.000340714
      26.5600  0.000342857
      26.5700  0.000346190
      26.5800  0.000350000
      26.5900  0.000353810
      26.6000  0.000355476
      26.6100  0.000357381
      26.6200  0.000361190
      26.6300  0.000364524
      26.6400  0.000366429
      26.6500  0.000370238
      26.6600  7.45238e-05
      26.6700  9.43095e-05
      26.6800  0.000102500
      26.6900  0.000107214
      26.7000  0.000111619
      26.7100  0.000118238
      26.7200  0.000125738
      26.7300  0.000128119
      26.7400  0.000119810
      26.7500  0.000100357
      26.7600  7.34524e-05
      26.7700  3.52619e-05
      26.7800  0.000357619
      26.7900  0.000355952
      26.8000  0.000356190
      26.8100  0.000354524
      26.8200  0.000352857
      26.8300  0.000349762
      26.8400  0.000344524
      26.8500  0.000340952
      26.8600  0.000335714
      26.8700  0.000332143
      26.8800  0.000327381
      26.8900  4.96905e-05
      26.9000  7.46667e-05
      26.9100  9.23571e-05
      26.9200  0.000105333
      26.9300  0.000115786
      26.9400  0.000125714
      26.9500  0.000135476
      26.9600  0.000145619
      26.9700  0.000156000
      26.9800  0.000165833
      26.9900  0.000175000
      27.0000  0.000181810
      27.0100  0.000183214
      27.0200  0.000183619
      27.0300  0.000181500
      27.0400  0.000177738
      27.0500  0.000173190
      27.0600  0.000168143
      27.0700  0.000163262
      27.0800  0.000158524
      27.0900  0.000153667
      27.1000  0.000148643
      27.1100  0.000143762
      27.1200  0.000138738
      27.1300  0.000133810
      27.1400  0.000129024
      27.1500  0.000124143
      27.1600  0.000119262
      27.1700  0.000114333
      27.1800  0.000104929
      27.1900  9.37619e-05
      27.2000  8.37381e-05
      27.2100  7.47619e-05
      27.2200  6.64048e-05
      27.2300  5.89048e-05
      27.2400  5.25476e-05
      27.2500  4.74524e-05
      27.2600  4.32143e-05
      27.2700  3.95238e-05
      27.2800  3.60000e-05
      27.2900  3.26905e-05
      27.3000  2.95476e-05
      27.3100  2.67143e-05
      27.3200  2.42381e-05
      27.3300  2.19048e-05
      27.3400  1.97429e-05
      27.3500  1.78214e-05
      27.3600  1.59357e-05
      27.3700  1.41643e-05
      27.3800  1.25762e-05
      27.3900  1.11595e-05
      27.4000  9.92143e-06
      27.4100  8.88095e-06
      27.4200  7.93095e-06
      27.4300  7.08095e-06
      27.4400  6.31429e-06
      27.4500  5.60476e-06
      27.4600  4.95952e-06
      27.4700  4.38810e-06
      27.4800  3.84762e-06
      27.4900  3.37143e-06
      27.5000  2.94286e-06
      27.5100  2.56429e-06
      27.5200  2.23786e-06
      27.5300  1.95714e-06
      27.5400  1.84333e-06
      27.5500  1.78833e-06
      27.5600  1.73262e-06
      27.5700  1.69143e-06
      27.5800  1.65310e-06
      27.5900  1.60976e-06
      27.6000  1.57524e-06
      27.6100  1.52476e-06
      27.6200  1.47667e-06
      27.6300  1.42952e-06
      27.6400  1.37929e-06
      27.6500  1.32286e-06
      27.6600  1.27048e-06
      27.6700  1.22119e-06
      27.6800  1.17476e-06
      27.6900  1.12857e-06
      27.7000  1.08000e-06
      27.7100  1.03571e-06
      27.7200  1.03595e-06
      27.7300  1.09929e-06
      27.7400  1.16714e-06
      27.7500  1.24071e-06
      27.7600  1.31310e-06
      27.7700  1.39595e-06
      27.7800  1.48190e-06
      27.7900  1.57190e-06
      27.8000  1.66976e-06
      27.8100  1.77690e-06
      27.8200  1.87976e-06
      27.8300  1.99595e-06
      27.8400  2.12429e-06
      27.8500  2.25452e-06
      27.8600  2.39524e-06
      27.8700  2.55952e-06
      27.8800  2.73333e-06
      27.8900  2.93810e-06
      27.9000  3.12381e-06
      27.9100  3.35714e-06
      27.9200  3.60952e-06
      27.9300  3.87857e-06
      27.9400  4.14524e-06
      27.9500  4.43810e-06
      27.9600  4.73571e-06
      27.9700  5.03809e-06
      27.9800  5.40000e-06
      27.9900  5.76190e-06
      28.0000  6.10238e-06
      28.0500  6.68333e-06
      28.1000  8.65952e-06
      28.1500  1.01714e-05
      28.2000  1.19500e-05
      28.2500  1.40595e-05
      28.3000  1.55357e-05
      28.3500  1.59310e-05
      28.4000  1.62429e-05
      28.4500  1.85738e-05
      28.5000  2.00333e-05
      28.5500  2.05429e-05
      28.5501  0.0