#from RSR-W4.txt
# Relative Spectral Response per photon; Wright et al. 2010
      2.52999  0.0
      2.53000  2.33433e-16
      2.54000  5.07333e-16
      2.55000  6.14667e-13
      2.56000  3.33233e-13
      2.57000  2.54167e-14
      2.58000  1.03933e-32
      2.59000  4.87231e-42
      2.60000  1.87433e-30
      2.61000  1.03267e-30
      2.62000  1.05867e-30
      2.63000  7.26667e-29
      2.64000  5.95667e-31
      2.65000  9.00000e-29
      2.66000  7.49000e-36
      2.67000  7.86333e-15
      2.68000  1.06900e-14
      2.69000  3.99667e-14
      2.70000  4.00667e-14
      2.71000  2.92167e-14
      2.72000  6.50667e-14
      2.73000  3.45000e-13
      2.74000  2.37533e-14
      2.75000  4.64333e-15
      2.76000  1.66167e-24
      2.77000  1.69700e-15
      2.78000  3.31467e-14
      2.79000  2.69000e-15
      2.80000  3.81000e-15
      2.81000  6.80000e-16
      2.82000  1.90633e-14
      2.83000  1.99733e-14
      2.84000  1.54233e-13
      2.85000  5.80333e-14
      2.86000  1.89400e-28
      2.87000  1.26567e-28
      2.88000  2.27967e-31
      2.89000  7.46667e-15
      2.90000  3.75667e-14
      2.91000  2.74433e-13
      2.92000  3.78333e-15
      2.93000  2.45467e-13
      2.94000  2.13567e-13
      2.95000  3.32667e-13
      2.96000  3.84333e-14
      2.97000  2.60767e-14
      2.98000  2.34733e-15
      2.99000  2.42367e-14
      3.00000  1.53067e-13
      3.01000  3.50667e-14
      3.02000  8.48000e-13
      3.03000  3.89667e-13
      3.04000  4.29000e-14
      3.05000  2.09600e-13
      3.06000  1.52933e-33
      3.07000  2.59967e-26
      3.08000  8.30667e-25
      3.09000  5.70333e-25
      3.10000  2.53900e-29
      3.11000  1.49067e-27
      3.12000  3.76333e-29
      3.13000  1.81000e-36
      3.14000  3.73000e-30
      3.15000  2.77800e-15
      3.16000  4.93667e-14
      3.17000  1.20767e-13
      3.18000  1.32067e-13
      3.19000  1.06133e-14
      3.20000  1.61667e-14
      3.21000  2.10567e-15
      3.22000  5.02667e-13
      3.23000  3.77000e-14
      3.24000  4.72667e-13
      3.25000  1.06900e-12
      3.26000  6.41000e-14
      3.27000  2.38967e-13
      3.28000  3.55000e-14
      3.29000  5.47667e-14
      3.30000  9.15000e-13
      3.31000  2.89433e-14
      3.32000  4.42333e-13
      3.33000  2.55900e-29
      3.34000  3.64000e-34
      3.35000  7.28000e-32
      3.36000  6.28665e-40
      3.37000  8.95000e-29
      3.38000  3.43333e-36
      3.39000  1.34367e-37
      3.40000  1.04500e-34
      3.41000  3.15833e-32
      3.42000  1.11867e-33
      3.43000  3.33333e-30
      3.44000  3.25400e-15
      3.45000  1.02033e-14
      3.46000  2.94500e-15
      3.47000  1.91333e-15
      3.48000  1.83233e-26
      3.49000  7.53667e-33
      3.50000  1.00933e-27
      3.51000  1.80400e-26
      3.52000  5.57333e-29
      3.53000  2.66700e-23
      3.54000  5.05667e-30
      3.55000  1.82100e-25
      3.56000  4.26333e-32
      3.57000  4.51333e-15
      3.58000  1.28867e-13
      3.59000  1.20000e-14
      3.60000  6.46667e-13
      3.61000  1.12333e-13
      3.62000  2.78433e-13
      3.63000  1.46700e-13
      3.64000  9.54000e-14
      3.65000  3.76333e-13
      3.66000  1.18767e-13
      3.67000  2.26433e-13
      3.68000  1.19033e-12
      3.69000  2.19233e-13
      3.70000  1.26767e-14
      3.71000  7.31667e-14
      3.72000  2.69433e-14
      3.73000  1.21300e-13
      3.74000  6.68000e-14
      3.75000  2.66000e-14
      3.76000  2.33800e-14
      3.77000  1.20400e-13
      3.78000  4.20000e-14
      3.79000  1.35900e-13
      3.80000  9.07000e-13
      3.81000  3.27500e-13
      3.82000  2.87833e-13
      3.83000  1.49833e-14
      3.84000  3.47000e-13
      3.85000  7.83333e-13
      3.86000  1.43300e-13
      3.87000  3.24733e-13
      3.88000  7.37333e-13
      3.89000  2.56133e-13
      3.90000  5.02000e-13
      3.91000  2.09967e-13
      3.92000  2.83600e-13
      3.93000  2.68000e-13
      3.94000  7.77667e-13
      3.95000  2.22367e-13
      3.96000  3.81000e-13
      3.97000  2.83200e-13
      3.98000  1.50700e-13
      3.99000  4.10000e-13
      4.00000  7.85000e-26
      4.01000  1.61700e-32
      4.02000  2.24400e-30
      4.03000  5.22333e-36
      4.04000  6.23000e-25
      4.05000  3.54000e-36
      4.06000  1.08900e-24
      4.07000  3.93333e-30
      4.08000  5.58333e-33
      4.09000  2.13933e-29
      4.10000  3.15033e-29
      4.11000  2.78100e-31
      4.12000  1.06267e-12
      4.13000  7.73667e-14
      4.14000  1.81467e-12
      4.15000  4.58000e-14
      4.16000  1.08767e-12
      4.17000  2.54367e-12
      4.18000  4.76000e-12
      4.19000  4.63333e-12
      4.20000  1.00800e-13
      4.21000  1.08600e-13
      4.22000  1.79633e-12
      4.23000  4.02333e-30
      4.24000  6.22333e-33
      4.25000  5.40667e-28
      4.26000  2.07167e-27
      4.27000  9.31333e-26
      4.28000  4.89000e-30
      4.29000  4.62333e-27
      4.30000  6.78333e-28
      4.31000  1.96733e-24
      4.32000  4.00000e-27
      4.33000  7.17333e-36
      4.34000  4.71333e-36
      4.35000  2.68200e-13
      4.36000  6.07333e-13
      4.37000  1.68767e-12
      4.38000  1.15767e-13
      4.39000  1.02167e-12
      4.40000  1.31200e-12
      4.41000  3.95667e-13
      4.42000  3.44667e-12
      4.43000  1.76500e-13
      4.44000  9.55667e-13
      4.45000  1.26767e-12
      4.46000  5.52333e-13
      4.47000  3.68333e-13
      4.48000  1.09433e-13
      4.49000  2.08267e-13
      4.50000  1.72233e-13
      4.51000  9.95000e-14
      4.52000  2.14000e-14
      4.53000  1.35433e-28
      4.54000  3.87667e-32
      4.55000  5.74333e-15
      4.56000  1.82233e-13
      4.57000  6.50333e-13
      4.58000  7.40667e-13
      4.59000  7.22333e-13
      4.60000  1.56067e-12
      4.61000  1.41633e-12
      4.62000  4.38667e-12
      4.63000  1.48867e-12
      4.64000  4.04000e-12
      4.65000  3.04333e-13
      4.66000  3.12667e-14
      4.67000  3.18400e-13
      4.68000  1.72467e-12
      4.69000  1.35533e-12
      4.70000  1.73000e-12
      4.71000  1.35467e-12
      4.72000  5.69667e-13
      4.73000  6.25667e-13
      4.74000  1.69367e-13
      4.75000  2.32933e-13
      4.76000  1.05367e-11
      4.77000  1.53933e-13
      4.78000  2.30533e-13
      4.79000  2.80133e-13
      4.80000  2.42167e-13
      4.81000  1.72500e-13
      4.82000  5.71333e-13
      4.83000  1.73767e-12
      4.84000  7.37000e-14
      4.85000  1.30667e-11
      4.86000  1.17033e-11
      4.87000  1.09467e-11
      4.88000  1.66867e-11
      4.89000  1.27867e-12
      4.90000  2.18900e-13
      4.91000  3.50000e-13
      4.92000  3.25700e-13
      4.93000  1.51867e-12
      4.94000  9.27333e-13
      4.95000  2.51667e-11
      4.96000  2.49967e-12
      4.97000  6.72333e-11
      4.98000  4.08000e-11
      4.99000  2.27267e-11
      5.00000  4.49333e-11
      5.01000  1.44333e-08
      5.02000  1.03000e-08
      5.03000  1.82967e-08
      5.04000  1.79067e-08
      5.05000  2.78400e-08
      5.06000  3.44667e-08
      5.07000  3.21633e-08
      5.08000  4.01667e-08
      5.09000  4.26000e-08
      5.10000  5.90667e-08
      5.11000  6.13333e-08
      5.12000  6.19667e-08
      5.13000  6.80667e-08
      5.14000  5.40667e-08
      5.15000  6.83667e-08
      5.16000  6.50000e-08
      5.17000  4.76333e-08
      5.18000  4.68000e-08
      5.19000  6.31667e-08
      5.20000  5.92333e-08
      5.21000  5.91333e-08
      5.22000  3.99667e-08
      5.23000  4.96667e-08
      5.24000  3.60667e-08
      5.25000  3.41667e-08
      5.26000  3.47000e-08
      5.27000  3.02133e-08
      5.28000  3.21267e-08
      5.29000  1.78267e-08
      5.30000  1.81067e-08
      5.31000  8.78667e-09
      5.32000  1.22900e-08
      5.33000  1.75433e-08
      5.34000  2.33933e-08
      5.35000  2.86367e-08
      5.36000  2.38900e-08
      5.37000  4.00667e-08
      5.38000  3.54667e-08
      5.39000  4.28667e-08
      5.40000  5.91667e-08
      5.41000  6.62333e-08
      5.42000  7.19333e-08
      5.43000  7.47000e-08
      5.44000  9.19333e-08
      5.45000  9.12000e-08
      5.46000  1.03400e-07
      5.47000  1.21400e-07
      5.48000  1.30733e-07
      5.49000  1.29567e-07
      5.50000  1.33800e-07
      5.51000  1.31933e-07
      5.52000  1.37067e-07
      5.53000  1.39233e-07
      5.54000  1.39967e-07
      5.55000  1.37400e-07
      5.56000  1.31667e-07
      5.57000  1.30567e-07
      5.58000  1.25567e-07
      5.59000  1.18667e-07
      5.60000  1.06233e-07
      5.61000  9.39000e-08
      5.62000  8.09000e-08
      5.63000  6.97667e-08
      5.64000  6.57333e-08
      5.65000  7.11333e-08
      5.66000  7.42000e-08
      5.67000  7.71667e-08
      5.68000  7.89000e-08
      5.69000  1.08867e-07
      5.70000  1.56367e-07
      5.71000  2.03033e-07
      5.72000  2.53533e-07
      5.73000  3.15700e-07
      5.74000  3.71000e-07
      5.75000  4.69667e-07
      5.76000  5.31333e-07
      5.77000  6.26667e-07
      5.78000  7.06000e-07
      5.79000  7.49333e-07
      5.80000  8.16333e-07
      5.81000  9.14333e-07
      5.82000  9.84667e-07
      5.83000  1.03967e-06
      5.84000  1.04667e-06
      5.85000  1.09967e-06
      5.86000  1.09633e-06
      5.87000  1.08667e-06
      5.88000  1.11033e-06
      5.89000  1.19067e-06
      5.90000  1.14233e-06
      5.91000  1.09833e-06
      5.92000  1.04300e-06
      5.93000  1.01567e-06
      5.94000  9.72000e-07
      5.95000  9.41000e-07
      5.96000  8.86667e-07
      5.97000  8.13000e-07
      5.98000  7.42333e-07
      5.99000  6.76667e-07
      6.00000  6.43333e-07
      6.01000  5.82667e-07
      6.02000  5.22667e-07
      6.03000  4.65333e-07
      6.04000  4.01667e-07
      6.05000  3.43333e-07
      6.06000  2.78900e-07
      6.07000  2.48933e-07
      6.08000  2.14400e-07
      6.09000  1.75367e-07
      6.10000  1.42700e-07
      6.11000  1.11200e-07
      6.12000  1.05300e-07
      6.13000  1.17567e-07
      6.14000  1.37600e-07
      6.15000  1.65900e-07
      6.16000  1.98967e-07
      6.17000  2.40367e-07
      6.18000  3.56000e-07
      6.19000  5.19000e-07
      6.20000  7.61000e-07
      6.21000  1.14100e-06
      6.22000  2.42733e-06
      6.23000  2.09767e-06
      6.24000  2.73100e-06
      6.25000  3.66333e-06
      6.26000  3.16567e-06
      6.27000  6.79667e-06
      6.28000  5.94333e-06
      6.29000  3.27967e-06
      6.30000  2.48833e-06
      6.31000  8.65667e-07
      6.32000  8.53667e-07
      6.33000  7.78667e-07
      6.34000  7.47333e-07
      6.35000  6.63000e-07
      6.36000  5.80333e-07
      6.37000  4.83000e-07
      6.38000  3.95667e-07
      6.39000  3.40667e-07
      6.40000  2.67800e-07
      6.41000  2.21133e-07
      6.42000  1.90000e-07
      6.43000  1.92633e-07
      6.44000  2.38000e-07
      6.45000  3.09567e-07
      6.46000  3.92667e-07
      6.47000  4.51333e-07
      6.48000  5.35333e-07
      6.49000  6.22667e-07
      6.50000  7.46333e-07
      6.51000  8.37667e-07
      6.52000  9.53667e-07
      6.53000  1.06633e-06
      6.54000  1.19067e-06
      6.55000  1.32833e-06
      6.56000  1.37100e-06
      6.57000  1.49467e-06
      6.58000  1.62533e-06
      6.59000  1.87833e-06
      6.60000  2.10000e-06
      6.61000  2.31400e-06
      6.62000  2.42733e-06
      6.63000  2.79200e-06
      6.64000  3.03000e-06
      6.65000  3.31167e-06
      6.66000  3.54000e-06
      6.67000  3.77333e-06
      6.68000  4.00667e-06
      6.69000  3.96000e-06
      6.70000  3.98667e-06
      6.71000  4.03000e-06
      6.72000  3.87667e-06
      6.73000  3.63667e-06
      6.74000  3.35000e-06
      6.75000  2.83533e-06
      6.76000  2.43867e-06
      6.77000  2.19400e-06
      6.78000  1.80833e-06
      6.79000  1.73233e-06
      6.80000  1.88133e-06
      6.81000  2.27067e-06
      6.82000  2.69133e-06
      6.83000  3.15767e-06
      6.84000  3.48000e-06
      6.85000  4.00000e-06
      6.86000  4.52333e-06
      6.87000  5.02333e-06
      6.88000  5.60333e-06
      6.89000  6.36000e-06
      6.90000  7.41000e-06
      6.91000  7.99667e-06
      6.92000  8.71333e-06
      6.93000  9.62667e-06
      6.94000  9.72667e-06
      6.95000  1.01333e-05
      6.96000  1.03867e-05
      6.97000  1.05900e-05
      6.98000  1.10600e-05
      6.99000  1.07000e-05
      7.00000  1.07700e-05
      7.01000  1.11533e-05
      7.02000  1.10933e-05
      7.03000  1.08233e-05
      7.04000  1.04400e-05
      7.05000  9.73000e-06
      7.06000  9.31000e-06
      7.07000  9.30333e-06
      7.08000  8.67000e-06
      7.09000  8.70333e-06
      7.10000  8.39333e-06
      7.11000  7.91000e-06
      7.12000  7.86000e-06
      7.13000  7.25667e-06
      7.14000  6.89000e-06
      7.15000  6.48333e-06
      7.16000  6.19333e-06
      7.17000  5.59333e-06
      7.18000  5.33000e-06
      7.19000  4.83000e-06
      7.20000  4.51667e-06
      7.21000  4.14000e-06
      7.22000  3.69333e-06
      7.23000  3.49000e-06
      7.24000  3.10300e-06
      7.25000  2.93167e-06
      7.26000  2.66000e-06
      7.27000  2.38100e-06
      7.28000  2.19767e-06
      7.29000  1.97833e-06
      7.30000  1.79633e-06
      7.31000  1.62233e-06
      7.32000  1.44900e-06
      7.33000  1.26267e-06
      7.34000  1.07267e-06
      7.35000  8.77000e-07
      7.36000  7.01667e-07
      7.37000  5.33333e-07
      7.38000  3.80000e-07
      7.39000  3.72333e-07
      7.40000  4.48333e-07
      7.41000  5.68000e-07
      7.42000  7.12667e-07
      7.43000  9.03667e-07
      7.44000  1.04567e-06
      7.45000  1.19033e-06
      7.46000  1.25833e-06
      7.47000  1.31267e-06
      7.48000  1.30133e-06
      7.49000  1.33167e-06
      7.50000  1.28533e-06
      7.51000  1.20067e-06
      7.52000  1.16767e-06
      7.53000  1.07867e-06
      7.54000  9.92667e-07
      7.55000  8.97000e-07
      7.56000  7.75667e-07
      7.57000  6.92333e-07
      7.58000  5.77667e-07
      7.59000  5.05333e-07
      7.60000  4.01333e-07
      7.61000  3.61667e-07
      7.62000  3.01500e-07
      7.63000  2.78400e-07
      7.64000  2.75500e-07
      7.65000  2.75933e-07
      7.66000  2.71300e-07
      7.67000  2.77233e-07
      7.68000  3.01800e-07
      7.69000  3.15000e-07
      7.70000  3.34667e-07
      7.71000  3.40000e-07
      7.72000  3.61667e-07
      7.73000  3.94333e-07
      7.74000  4.10000e-07
      7.75000  4.35667e-07
      7.76000  4.73667e-07
      7.77000  4.86333e-07
      7.78000  5.26333e-07
      7.79000  5.47000e-07
      7.80000  5.53333e-07
      7.81000  5.75667e-07
      7.82000  6.14667e-07
      7.83000  6.44667e-07
      7.84000  6.37000e-07
      7.85000  6.47000e-07
      7.86000  6.81000e-07
      7.87000  6.67667e-07
      7.88000  7.01333e-07
      7.89000  7.23000e-07
      7.90000  7.22667e-07
      7.91000  7.53667e-07
      7.92000  7.85333e-07
      7.93000  8.20667e-07
      7.94000  8.84333e-07
      7.95000  9.22333e-07
      7.96000  9.35333e-07
      7.97000  1.02200e-06
      7.98000  1.03233e-06
      7.99000  1.07867e-06
      8.00000  1.12600e-06
      8.01000  1.13100e-06
      8.02000  1.13300e-06
      8.03000  1.15700e-06
      8.04000  1.10900e-06
      8.05000  1.10700e-06
      8.06000  1.04800e-06
      8.07000  1.01933e-06
      8.08000  9.81000e-07
      8.09000  9.24333e-07
      8.10000  9.24333e-07
      8.11000  9.11000e-07
      8.12000  8.63333e-07
      8.13000  8.58000e-07
      8.14000  9.10667e-07
      8.15000  8.80000e-07
      8.16000  9.10667e-07
      8.17000  9.53667e-07
      8.18000  1.00767e-06
      8.19000  1.07567e-06
      8.20000  1.15400e-06
      8.21000  1.26300e-06
      8.22000  1.41200e-06
      8.23000  1.60167e-06
      8.24000  1.92800e-06
      8.25000  2.14733e-06
      8.26000  2.52700e-06
      8.27000  3.13800e-06
      8.28000  3.36667e-06
      8.29000  3.99667e-06
      8.30000  4.88333e-06
      8.31000  3.26267e-07
      8.32000  2.71867e-07
      8.33000  2.56433e-07
      8.34000  2.24933e-07
      8.35000  2.19667e-07
      8.36000  2.23600e-07
      8.37000  2.09700e-07
      8.38000  2.05967e-07
      8.39000  2.09333e-07
      8.40000  1.99067e-07
      8.41000  1.81267e-07
      8.42000  1.71833e-07
      8.43000  1.61233e-07
      8.44000  1.57733e-07
      8.45000  1.50133e-07
      8.46000  1.37700e-07
      8.47000  1.31900e-07
      8.48000  1.29400e-07
      8.49000  1.27567e-07
      8.50000  1.26100e-07
      8.51000  1.26600e-07
      8.52000  1.31100e-07
      8.53000  1.28067e-07
      8.54000  1.35500e-07
      8.55000  1.33233e-07
      8.56000  1.40033e-07
      8.57000  1.37900e-07
      8.58000  1.39967e-07
      8.59000  1.42700e-07
      8.60000  1.45133e-07
      8.61000  1.47933e-07
      8.62000  1.54900e-07
      8.63000  1.57033e-07
      8.64000  1.58567e-07
      8.65000  1.56833e-07
      8.66000  1.62200e-07
      8.67000  1.66000e-07
      8.68000  1.69333e-07
      8.69000  1.72900e-07
      8.70000  1.75767e-07
      8.71000  1.77133e-07
      8.72000  1.79967e-07
      8.73000  1.82033e-07
      8.74000  1.76533e-07
      8.75000  1.81067e-07
      8.76000  1.82967e-07
      8.77000  1.81100e-07
      8.78000  1.85133e-07
      8.79000  1.89367e-07
      8.80000  1.95200e-07
      8.81000  2.06033e-07
      8.82000  2.11900e-07
      8.83000  2.12667e-07
      8.84000  2.16467e-07
      8.85000  2.26933e-07
      8.86000  2.27033e-07
      8.87000  2.33167e-07
      8.88000  2.39633e-07
      8.89000  2.47800e-07
      8.90000  2.63933e-07
      8.91000  2.70767e-07
      8.92000  2.83800e-07
      8.93000  2.93467e-07
      8.94000  3.00633e-07
      8.95000  3.13000e-07
      8.96000  3.20467e-07
      8.97000  3.29933e-07
      8.98000  3.36667e-07
      8.99000  3.39667e-07
      9.00000  3.34667e-07
      9.01000  3.47667e-07
      9.02000  3.60000e-07
      9.03000  3.62667e-07
      9.04000  3.59000e-07
      9.05000  3.70000e-07
      9.06000  3.75333e-07
      9.07000  3.80333e-07
      9.08000  3.83000e-07
      9.09000  3.86000e-07
      9.10000  3.87333e-07
      9.11000  3.86000e-07
      9.12000  3.83667e-07
      9.13000  3.87333e-07
      9.14000  3.76000e-07
      9.15000  3.73333e-07
      9.16000  3.74000e-07
      9.17000  3.71333e-07
      9.18000  3.72333e-07
      9.19000  3.65000e-07
      9.20000  3.53667e-07
      9.21000  3.34000e-07
      9.22000  3.30400e-07
      9.23000  3.16933e-07
      9.24000  2.94067e-07
      9.25000  2.80533e-07
      9.26000  2.71867e-07
      9.27000  2.64200e-07
      9.28000  2.49167e-07
      9.29000  2.43667e-07
      9.30000  2.40600e-07
      9.31000  2.34500e-07
      9.32000  2.28533e-07
      9.33000  2.19933e-07
      9.34000  2.20000e-07
      9.35000  2.17133e-07
      9.36000  2.10867e-07
      9.37000  2.06333e-07
      9.38000  2.04033e-07
      9.39000  2.01867e-07
      9.40000  1.99700e-07
      9.41000  1.97600e-07
      9.42000  1.95600e-07
      9.43000  1.93633e-07
      9.44000  1.91967e-07
      9.45000  1.90500e-07
      9.46000  1.87767e-07
      9.47000  1.85767e-07
      9.48000  1.82967e-07
      9.49000  1.80700e-07
      9.50000  1.77767e-07
      9.51000  1.75933e-07
      9.52000  1.73733e-07
      9.53000  1.71133e-07
      9.54000  1.69867e-07
      9.55000  1.68333e-07
      9.56000  1.67167e-07
      9.57000  1.63500e-07
      9.58000  1.66900e-07
      9.59000  1.66000e-07
      9.60000  1.62667e-07
      9.61000  1.61767e-07
      9.62000  1.60633e-07
      9.63000  1.59867e-07
      9.64000  1.60533e-07
      9.65000  1.59333e-07
      9.66000  1.62300e-07
      9.67000  1.63400e-07
      9.68000  1.63067e-07
      9.69000  1.60567e-07
      9.70000  1.59567e-07
      9.71000  1.60933e-07
      9.72000  1.58767e-07
      9.73000  1.56467e-07
      9.74000  1.55400e-07
      9.75000  1.54700e-07
      9.76000  1.56767e-07
      9.77000  1.57000e-07
      9.78000  1.55833e-07
      9.79000  1.55833e-07
      9.80000  1.56033e-07
      9.81000  1.55533e-07
      9.82000  1.55233e-07
      9.83000  1.54900e-07
      9.84000  1.55533e-07
      9.85000  1.56033e-07
      9.86000  1.55700e-07
      9.87000  1.53833e-07
      9.88000  1.53600e-07
      9.89000  1.54600e-07
      9.90000  1.53667e-07
      9.91000  1.52433e-07
      9.92000  1.55167e-07
      9.93000  1.54867e-07
      9.94000  1.54833e-07
      9.95000  1.54567e-07
      9.96000  1.55367e-07
      9.97000  1.55633e-07
      9.98000  1.55467e-07
      9.99000  1.54433e-07
      10.0000  1.54633e-07
      10.0100  1.54900e-07
      10.0200  1.55533e-07
      10.0300  1.55900e-07
      10.0400  1.56600e-07
      10.0500  1.57333e-07
      10.0600  1.57067e-07
      10.0700  1.57067e-07
      10.0800  1.56633e-07
      10.0900  1.53700e-07
      10.1000  1.56533e-07
      10.1100  1.54967e-07
      10.1200  1.54333e-07
      10.1300  1.53500e-07
      10.1400  1.52800e-07
      10.1500  1.52400e-07
      10.1600  1.51233e-07
      10.1700  1.50300e-07
      10.1800  1.49700e-07
      10.1900  1.49400e-07
      10.2000  1.48633e-07
      10.2100  1.48267e-07
      10.2200  1.47567e-07
      10.2300  1.47933e-07
      10.2400  1.46467e-07
      10.2500  1.46067e-07
      10.2600  1.46067e-07
      10.2700  1.44500e-07
      10.2800  1.43933e-07
      10.2900  1.43300e-07
      10.3000  1.44000e-07
      10.3100  1.44967e-07
      10.3200  1.45633e-07
      10.3300  1.46267e-07
      10.3400  1.46933e-07
      10.3500  1.47600e-07
      10.3600  1.50167e-07
      10.3700  1.51833e-07
      10.3800  1.51400e-07
      10.3900  1.50533e-07
      10.4000  1.48833e-07
      10.4100  1.48133e-07
      10.4200  1.48467e-07
      10.4300  1.47933e-07
      10.4400  1.47100e-07
      10.4500  1.46467e-07
      10.4600  1.46800e-07
      10.4700  1.46800e-07
      10.4800  1.44133e-07
      10.4900  1.46200e-07
      10.5000  1.47800e-07
      10.5100  1.48133e-07
      10.5200  1.48867e-07
      10.5300  1.50467e-07
      10.5400  1.51467e-07
      10.5500  1.52267e-07
      10.5600  1.51133e-07
      10.5700  1.50133e-07
      10.5800  1.50200e-07
      10.5900  1.49933e-07
      10.6000  1.49367e-07
      10.6100  1.49133e-07
      10.6200  1.48567e-07
      10.6300  1.47933e-07
      10.6400  1.49067e-07
      10.6500  1.48033e-07
      10.6600  1.46967e-07
      10.6700  1.46167e-07
      10.6800  1.45700e-07
      10.6900  1.44800e-07
      10.7000  1.44167e-07
      10.7100  1.43367e-07
      10.7200  1.42433e-07
      10.7300  1.42233e-07
      10.7400  1.42267e-07
      10.7500  1.42300e-07
      10.7600  1.40967e-07
      10.7700  1.39867e-07
      10.7800  1.41067e-07
      10.7900  1.41067e-07
      10.8000  1.40667e-07
      10.8100  1.40067e-07
      10.8200  1.39733e-07
      10.8300  1.38133e-07
      10.8400  1.38467e-07
      10.8500  1.39367e-07
      10.8600  1.40133e-07
      10.8700  1.40267e-07
      10.8800  1.39900e-07
      10.8900  1.40000e-07
      10.9000  1.40267e-07
      10.9100  1.42567e-07
      10.9200  1.43533e-07
      10.9300  1.44133e-07
      10.9400  1.45400e-07
      10.9500  1.47067e-07
      10.9600  1.48533e-07
      10.9700  1.50100e-07
      10.9800  1.51833e-07
      10.9900  1.54167e-07
      11.0000  1.57667e-07
      11.0100  1.61633e-07
      11.0200  1.65633e-07
      11.0300  1.69600e-07
      11.0400  1.76567e-07
      11.0500  1.85100e-07
      11.0600  1.94233e-07
      11.0700  2.04933e-07
      11.0800  2.16700e-07
      11.0900  2.32100e-07
      11.1000  2.49367e-07
      11.1100  1.58567e-07
      11.1200  1.43400e-07
      11.1300  1.28267e-07
      11.1400  1.10067e-07
      11.1500  9.84000e-08
      11.1600  8.80667e-08
      11.1700  7.92333e-08
      11.1800  7.04000e-08
      11.1900  6.32000e-08
      11.2000  5.83333e-08
      11.2100  5.38000e-08
      11.2200  4.97667e-08
      11.2300  4.64000e-08
      11.2400  4.40333e-08
      11.2500  4.14333e-08
      11.2600  3.92667e-08
      11.2700  3.67667e-08
      11.2800  3.55000e-08
      11.2900  3.51667e-08
      11.3000  3.42333e-08
      11.3100  3.34333e-08
      11.3200  3.21233e-08
      11.3300  3.19167e-08
      11.3400  3.18167e-08
      11.3500  3.20967e-08
      11.3600  3.22300e-08
      11.3700  3.21733e-08
      11.3800  3.17500e-08
      11.3900  3.24333e-08
      11.4000  3.30367e-08
      11.4100  3.32967e-08
      11.4200  3.39000e-08
      11.4300  3.42000e-08
      11.4400  3.48000e-08
      11.4500  3.50667e-08
      11.4600  3.58000e-08
      11.4700  3.65667e-08
      11.4800  3.69000e-08
      11.4900  3.72333e-08
      11.5000  3.78667e-08
      11.5100  3.87000e-08
      11.5200  3.94000e-08
      11.5300  4.00000e-08
      11.5400  4.03000e-08
      11.5500  4.10000e-08
      11.5600  4.13667e-08
      11.5700  4.17000e-08
      11.5800  4.27000e-08
      11.5900  4.32667e-08
      11.6000  4.38667e-08
      11.6100  4.45000e-08
      11.6200  4.52667e-08
      11.6300  4.62000e-08
      11.6400  4.66667e-08
      11.6500  4.77000e-08
      11.6600  4.89333e-08
      11.6700  4.98000e-08
      11.6800  5.08667e-08
      11.6900  5.18000e-08
      11.7000  5.29000e-08
      11.7100  5.41333e-08
      11.7200  5.54000e-08
      11.7300  5.64333e-08
      11.7400  5.71667e-08
      11.7500  5.84333e-08
      11.7600  5.96000e-08
      11.7700  6.02667e-08
      11.7800  6.12667e-08
      11.7900  6.25667e-08
      11.8000  6.38333e-08
      11.8100  6.57000e-08
      11.8200  6.68000e-08
      11.8300  6.82667e-08
      11.8400  6.96667e-08
      11.8500  7.09667e-08
      11.8600  7.20667e-08
      11.8700  7.27333e-08
      11.8800  7.48000e-08
      11.8900  7.69667e-08
      11.9000  7.81667e-08
      11.9100  7.92667e-08
      11.9200  8.06333e-08
      11.9300  8.14333e-08
      11.9400  8.12000e-08
      11.9500  8.22333e-08
      11.9600  8.33000e-08
      11.9700  8.43333e-08
      11.9800  8.50667e-08
      11.9900  8.61333e-08
      12.0000  8.69000e-08
      12.0100  8.90333e-08
      12.0200  8.95667e-08
      12.0300  8.95667e-08
      12.0400  8.76333e-08
      12.0500  8.80667e-08
      12.0600  8.81667e-08
      12.0700  8.86000e-08
      12.0800  8.90000e-08
      12.0900  8.93667e-08
      12.1000  8.96667e-08
      12.1100  8.99333e-08
      12.1200  8.98667e-08
      12.1300  9.01667e-08
      12.1400  9.04667e-08
      12.1500  9.08000e-08
      12.1600  9.11333e-08
      12.1700  9.38333e-08
      12.1800  9.44333e-08
      12.1900  9.42000e-08
      12.2000  9.25333e-08
      12.2100  9.32333e-08
      12.2200  9.35333e-08
      12.2300  9.53667e-08
      12.2400  9.57667e-08
      12.2500  9.55667e-08
      12.2600  9.52333e-08
      12.2700  9.48333e-08
      12.2800  9.42333e-08
      12.2900  9.32667e-08
      12.3000  9.10667e-08
      12.3100  9.03667e-08
      12.3200  9.00000e-08
      12.3300  8.93333e-08
      12.3400  9.06000e-08
      12.3500  9.01000e-08
      12.3600  8.88333e-08
      12.3700  8.57000e-08
      12.3800  8.47667e-08
      12.3900  8.38000e-08
      12.4000  8.28333e-08
      12.4100  8.30000e-08
      12.4200  8.25333e-08
      12.4300  8.14667e-08
      12.4400  7.96667e-08
      12.4500  7.81667e-08
      12.4600  7.72000e-08
      12.4700  7.72000e-08
      12.4800  7.62667e-08
      12.4900  7.50333e-08
      12.5000  7.39667e-08
      12.5100  7.23667e-08
      12.5200  6.95667e-08
      12.5300  6.85000e-08
      12.5400  6.74667e-08
      12.5500  6.75333e-08
      12.5600  6.65667e-08
      12.5700  6.54667e-08
      12.5800  6.43333e-08
      12.5900  6.31000e-08
      12.6000  6.15333e-08
      12.6100  6.06000e-08
      12.6200  6.00333e-08
      12.6300  5.92000e-08
      12.6400  5.82333e-08
      12.6500  5.72000e-08
      12.6600  5.60333e-08
      12.6700  5.38667e-08
      12.6800  5.28667e-08
      12.6900  5.18667e-08
      12.7000  5.05333e-08
      12.7100  4.99000e-08
      12.7200  4.95333e-08
      12.7300  4.95333e-08
      12.7400  4.92000e-08
      12.7500  4.88667e-08
      12.7600  4.88667e-08
      12.7700  4.85333e-08
      12.7800  4.95333e-08
      12.7900  5.05000e-08
      12.8000  5.18333e-08
      12.8100  5.31333e-08
      12.8200  5.47667e-08
      12.8300  5.64000e-08
      12.8400  5.97000e-08
      12.8500  6.41333e-08
      12.8600  6.95000e-08
      12.8700  7.56000e-08
      12.8800  8.26000e-08
      12.8900  9.09333e-08
      12.9000  1.00867e-07
      12.9100  1.10100e-07
      12.9200  1.20600e-07
      12.9300  1.33567e-07
      12.9400  1.49600e-07
      12.9500  1.69867e-07
      12.9600  1.98033e-07
      12.9700  2.26300e-07
      12.9800  2.53267e-07
      12.9900  2.86233e-07
      13.0000  3.27167e-07
      13.0100  3.83000e-07
      13.0200  4.56000e-07
      13.0300  5.55000e-07
      13.0400  6.06667e-07
      13.0500  6.63333e-07
      13.0600  7.31333e-07
      13.0700  8.11667e-07
      13.0800  9.14667e-07
      13.0900  1.05733e-06
      13.1000  9.76667e-07
      13.1100  1.14567e-06
      13.1200  1.13433e-06
      13.1300  1.12833e-06
      13.1400  1.11400e-06
      13.1500  1.09600e-06
      13.1600  1.07400e-06
      13.1700  1.03233e-06
      13.1800  9.86333e-07
      13.1900  9.43000e-07
      13.2000  6.39333e-07
      13.2100  1.68833e-06
      13.2200  1.69800e-06
      13.2300  1.71300e-06
      13.2400  1.71967e-06
      13.2500  1.72667e-06
      13.2600  1.73233e-06
      13.2700  1.73233e-06
      13.2800  1.72967e-06
      13.2900  1.73100e-06
      13.3000  1.73100e-06
      13.3100  1.73167e-06
      13.3200  1.73033e-06
      13.3300  1.72567e-06
      13.3400  1.71633e-06
      13.3500  1.65733e-06
      13.3600  1.75300e-06
      13.3700  1.74967e-06
      13.3800  1.68600e-06
      13.3900  1.69700e-06
      13.4000  1.68667e-06
      13.4100  1.72833e-06
      13.4200  1.72633e-06
      13.4300  1.72033e-06
      13.4400  1.65600e-06
      13.4500  1.66633e-06
      13.4600  1.72633e-06
      13.4700  1.72700e-06
      13.4800  1.73200e-06
      13.4900  1.73300e-06
      13.5000  1.73500e-06
      13.5100  1.74333e-06
      13.5200  1.74867e-06
      13.5300  1.75733e-06
      13.5400  1.76300e-06
      13.5500  1.77233e-06
      13.5600  1.78200e-06
      13.5700  1.78800e-06
      13.5800  1.74167e-06
      13.5900  1.76700e-06
      13.6000  1.77200e-06
      13.6100  1.76600e-06
      13.6200  1.80767e-06
      13.6300  1.81033e-06
      13.6400  1.80933e-06
      13.6500  1.76267e-06
      13.6600  1.77400e-06
      13.6700  1.77767e-06
      13.6800  1.77867e-06
      13.6900  1.77800e-06
      13.7000  1.77567e-06
      13.7100  1.77133e-06
      13.7200  1.77267e-06
      13.7300  1.78200e-06
      13.7400  1.78900e-06
      13.7500  1.79167e-06
      13.7600  1.79133e-06
      13.7700  1.76867e-06
      13.7800  1.79800e-06
      13.7900  1.79667e-06
      13.8000  1.79900e-06
      13.8100  1.80133e-06
      13.8200  1.80733e-06
      13.8300  1.80933e-06
      13.8400  1.81167e-06
      13.8500  1.81667e-06
      13.8600  1.81800e-06
      13.8700  1.82200e-06
      13.8800  1.82533e-06
      13.8900  1.82800e-06
      13.9000  1.83100e-06
      13.9100  1.83367e-06
      13.9200  1.80967e-06
      13.9300  1.82200e-06
      13.9400  1.82333e-06
      13.9500  1.79667e-06
      13.9600  1.84600e-06
      13.9700  1.84600e-06
      13.9800  1.85000e-06
      13.9900  1.85100e-06
      14.0000  1.85233e-06
      14.0100  1.83467e-06
      14.0200  1.84633e-06
      14.0300  1.84300e-06
      14.0400  1.85633e-06
      14.0500  1.85800e-06
      14.0600  1.86100e-06
      14.0700  1.86600e-06
      14.0800  1.83733e-06
      14.0900  1.84567e-06
      14.1000  1.86367e-06
      14.1100  1.85200e-06
      14.1200  1.84167e-06
      14.1300  1.83233e-06
      14.1400  1.80433e-06
      14.1500  1.80767e-06
      14.1600  1.80400e-06
      14.1700  1.79533e-06
      14.1800  1.76667e-06
      14.1900  1.79100e-06
      14.2000  1.78600e-06
      14.2100  1.75300e-06
      14.2200  1.76233e-06
      14.2300  1.76233e-06
      14.2400  1.76067e-06
      14.2500  1.76133e-06
      14.2600  1.76600e-06
      14.2700  1.76900e-06
      14.2800  1.76933e-06
      14.2900  1.76300e-06
      14.3000  1.75767e-06
      14.3100  1.75333e-06
      14.3200  1.75500e-06
      14.3300  1.76100e-06
      14.3400  1.76367e-06
      14.3500  1.76500e-06
      14.3600  1.75467e-06
      14.3700  1.77733e-06
      14.3800  1.78367e-06
      14.3900  1.78633e-06
      14.4000  1.79167e-06
      14.4100  1.79733e-06
      14.4200  1.80233e-06
      14.4300  1.81100e-06
      14.4400  1.76100e-06
      14.4500  1.79900e-06
      14.4600  1.83000e-06
      14.4700  1.83533e-06
      14.4800  1.84400e-06
      14.4900  1.85267e-06
      14.5000  1.84833e-06
      14.5100  1.87233e-06
      14.5200  1.88467e-06
      14.5300  1.89767e-06
      14.5400  1.90600e-06
      14.5500  1.88767e-06
      14.5600  1.92733e-06
      14.5700  1.94000e-06
      14.5800  1.94067e-06
      14.5900  1.97467e-06
      14.6000  1.99633e-06
      14.6100  2.00700e-06
      14.6200  2.01533e-06
      14.6300  2.01367e-06
      14.6400  2.02400e-06
      14.6500  2.05700e-06
      14.6600  2.07600e-06
      14.6700  2.09400e-06
      14.6800  2.10867e-06
      14.6900  2.11300e-06
      14.7000  2.11867e-06
      14.7100  2.12933e-06
      14.7200  2.14333e-06
      14.7300  2.15767e-06
      14.7400  2.16533e-06
      14.7500  2.17333e-06
      14.7600  2.18500e-06
      14.7700  2.17400e-06
      14.7800  2.20133e-06
      14.7900  2.20967e-06
      14.8000  2.21767e-06
      14.8100  2.22533e-06
      14.8200  2.23367e-06
      14.8300  2.23400e-06
      14.8400  2.23800e-06
      14.8500  2.23267e-06
      14.8600  2.26500e-06
      14.8700  2.27333e-06
      14.8800  2.27500e-06
      14.8900  2.26833e-06
      14.9000  2.25767e-06
      14.9100  2.24400e-06
      14.9200  2.24567e-06
      14.9300  2.24433e-06
      14.9400  2.21467e-06
      14.9500  2.26167e-06
      14.9600  2.26800e-06
      14.9700  2.27233e-06
      14.9800  2.26933e-06
      14.9900  2.26700e-06
      15.0000  2.26300e-06
      15.0100  2.26233e-06
      15.0200  2.26667e-06
      15.0300  2.27267e-06
      15.0400  2.27633e-06
      15.0500  2.27900e-06
      15.0600  2.28067e-06
      15.0700  2.28333e-06
      15.0800  2.28133e-06
      15.0900  2.27333e-06
      15.1000  2.26367e-06
      15.1100  2.23333e-06
      15.1200  2.25467e-06
      15.1300  2.22500e-06
      15.1400  2.24800e-06
      15.1500  2.24933e-06
      15.1600  2.24467e-06
      15.1700  2.23900e-06
      15.1800  2.22533e-06
      15.1900  2.19900e-06
      15.2000  2.22633e-06
      15.2100  2.22233e-06
      15.2200  2.21833e-06
      15.2300  2.21733e-06
      15.2400  2.21367e-06
      15.2500  2.20967e-06
      15.2600  2.20900e-06
      15.2700  2.20867e-06
      15.2800  2.20767e-06
      15.2900  2.20733e-06
      15.3000  2.20700e-06
      15.3100  2.17767e-06
      15.3200  2.18500e-06
      15.3300  2.18100e-06
      15.3400  2.15367e-06
      15.3500  2.20767e-06
      15.3600  2.20767e-06
      15.3700  2.21133e-06
      15.3800  2.17133e-06
      15.3900  2.18200e-06
      15.4000  2.17900e-06
      15.4100  2.17067e-06
      15.4200  2.17467e-06
      15.4300  2.18533e-06
      15.4400  2.19933e-06
      15.4500  2.20900e-06
      15.4600  2.21767e-06
      15.4700  2.21733e-06
      15.4800  2.20133e-06
      15.4900  2.27300e-06
      15.5000  2.28100e-06
      15.5100  2.28933e-06
      15.5200  2.24933e-06
      15.5300  2.27400e-06
      15.5400  2.29767e-06
      15.5500  2.32167e-06
      15.5600  2.33800e-06
      15.5700  2.35000e-06
      15.5800  2.35233e-06
      15.5900  2.42400e-06
      15.6000  2.44067e-06
      15.6100  2.45667e-06
      15.6200  2.47567e-06
      15.6300  2.49133e-06
      15.6400  2.50933e-06
      15.6500  2.48600e-06
      15.6600  2.51133e-06
      15.6700  2.52867e-06
      15.6800  2.54333e-06
      15.6900  2.55833e-06
      15.7000  2.57767e-06
      15.7100  2.59933e-06
      15.7200  2.61700e-06
      15.7300  2.63000e-06
      15.7400  2.64100e-06
      15.7500  2.65033e-06
      15.7600  2.65500e-06
      15.7700  2.64433e-06
      15.7800  2.71633e-06
      15.7900  2.72833e-06
      15.8000  2.73933e-06
      15.8100  2.75433e-06
      15.8200  2.68333e-06
      15.8300  2.71733e-06
      15.8400  2.72033e-06
      15.8500  2.79800e-06
      15.8600  2.80933e-06
      15.8700  2.82000e-06
      15.8800  2.83133e-06
      15.8900  2.84200e-06
      15.9000  2.85333e-06
      15.9100  2.86400e-06
      15.9200  2.81233e-06
      15.9300  2.83767e-06
      15.9400  2.84367e-06
      15.9500  2.82900e-06
      15.9600  2.91700e-06
      15.9700  2.92933e-06
      15.9800  2.94100e-06
      15.9900  2.95267e-06
      16.0000  2.96433e-06
      16.0100  2.98100e-06
      16.0200  2.99367e-06
      16.0300  3.00733e-06
      16.0400  3.02033e-06
      16.0500  3.03433e-06
      16.0600  3.04800e-06
      16.0700  3.06200e-06
      16.0800  3.07667e-06
      16.0900  3.04733e-06
      16.1000  3.08300e-06
      16.1100  3.09767e-06
      16.1200  3.14000e-06
      16.1300  3.14367e-06
      16.1400  3.14600e-06
      16.1500  3.18133e-06
      16.1600  3.17967e-06
      16.1700  3.17633e-06
      16.1800  3.20633e-06
      16.1900  3.20167e-06
      16.2000  3.20433e-06
      16.2100  3.21467e-06
      16.2200  3.26167e-06
      16.2300  3.27267e-06
      16.2400  3.28167e-06
      16.2500  3.28733e-06
      16.2600  3.29033e-06
      16.2700  3.32367e-06
      16.2800  3.31967e-06
      16.2900  3.31100e-06
      16.3000  3.29567e-06
      16.3100  3.25267e-06
      16.3200  3.29867e-06
      16.3300  3.29833e-06
      16.3400  3.29800e-06
      16.3500  3.27733e-06
      16.3600  3.30000e-06
      16.3700  3.30467e-06
      16.3800  3.29000e-06
      16.3900  3.30000e-06
      16.4000  3.30167e-06
      16.4100  3.30300e-06
      16.4200  3.30433e-06
      16.4300  3.34000e-06
      16.4400  3.34333e-06
      16.4500  3.34333e-06
      16.4600  3.34667e-06
      16.4700  3.34667e-06
      16.4800  3.35000e-06
      16.4900  3.35000e-06
      16.5000  3.38667e-06
      16.5100  3.38667e-06
      16.5200  3.38667e-06
      16.5300  3.38667e-06
      16.5400  3.42333e-06
      16.5500  3.42333e-06
      16.5600  3.45667e-06
      16.5700  3.45667e-06
      16.5800  3.45333e-06
      16.5900  3.50000e-06
      16.6000  3.51667e-06
      16.6100  3.54667e-06
      16.6200  3.53333e-06
      16.6300  3.52333e-06
      16.6400  3.57333e-06
      16.6500  3.60333e-06
      16.6600  3.58333e-06
      16.6700  3.62667e-06
      16.6800  3.63333e-06
      16.6900  3.69000e-06
      16.7000  3.72000e-06
      16.7100  3.74667e-06
      16.7200  3.77667e-06
      16.7300  3.80667e-06
      16.7400  3.83333e-06
      16.7500  3.86333e-06
      16.7600  3.89333e-06
      16.7700  3.92333e-06
      16.7800  3.95333e-06
      16.7900  3.98000e-06
      16.8000  4.03333e-06
      16.8100  4.06667e-06
      16.8200  4.05667e-06
      16.8300  4.13333e-06
      16.8400  4.20000e-06
      16.8500  4.23000e-06
      16.8600  4.25667e-06
      16.8700  4.32333e-06
      16.8800  4.35000e-06
      16.8900  4.38000e-06
      16.9000  4.46667e-06
      16.9100  4.52667e-06
      16.9200  4.59667e-06
      16.9300  4.62667e-06
      16.9400  4.65333e-06
      16.9500  4.71000e-06
      16.9600  4.73333e-06
      16.9700  4.80333e-06
      16.9800  4.87667e-06
      16.9900  4.91667e-06
      17.0000  4.99000e-06
      17.0100  5.02667e-06
      17.0200  5.09333e-06
      17.0300  5.15667e-06
      17.0400  5.18000e-06
      17.0500  5.23667e-06
      17.0600  5.28667e-06
      17.0700  5.34000e-06
      17.0800  5.37667e-06
      17.0900  5.46333e-06
      17.1000  5.55000e-06
      17.1100  5.62667e-06
      17.1200  5.68333e-06
      17.1300  5.70000e-06
      17.1400  5.71333e-06
      17.1500  5.74667e-06
      17.1600  5.81333e-06
      17.1700  5.87667e-06
      17.1800  6.07333e-06
      17.1900  6.16000e-06
      17.2000  6.25667e-06
      17.2100  6.30333e-06
      17.2200  6.34000e-06
      17.2300  6.40333e-06
      17.2400  6.40667e-06
      17.2500  6.29000e-06
      17.2600  6.32667e-06
      17.2700  6.36000e-06
      17.2800  6.43000e-06
      17.2900  6.46667e-06
      17.3000  6.50333e-06
      17.3100  6.68667e-06
      17.3200  6.85000e-06
      17.3300  6.91000e-06
      17.3400  6.92667e-06
      17.3500  6.88333e-06
      17.3600  6.79333e-06
      17.3700  6.83000e-06
      17.3800  6.86667e-06
      17.3900  6.93667e-06
      17.4000  7.15667e-06
      17.4100  7.28333e-06
      17.4200  7.33667e-06
      17.4300  7.25667e-06
      17.4400  7.21333e-06
      17.4500  7.28333e-06
      17.4600  7.50333e-06
      17.4700  7.72000e-06
      17.4800  7.84333e-06
      17.4900  7.94333e-06
      17.5000  8.02333e-06
      17.5100  8.08667e-06
      17.5200  8.17333e-06
      17.5300  8.28333e-06
      17.5400  8.37000e-06
      17.5500  8.45333e-06
      17.5600  8.31667e-06
      17.5700  8.44333e-06
      17.5800  8.60000e-06
      17.5900  8.76000e-06
      17.6000  9.00667e-06
      17.6100  9.34667e-06
      17.6200  9.55667e-06
      17.6300  9.76333e-06
      17.6400  9.91333e-06
      17.6500  1.01133e-05
      17.6600  1.02933e-05
      17.6700  1.04667e-05
      17.6800  1.07000e-05
      17.6900  1.09167e-05
      17.7000  1.11633e-05
      17.7100  1.13467e-05
      17.7200  1.14433e-05
      17.7300  1.17233e-05
      17.7400  1.20067e-05
      17.7500  1.23167e-05
      17.7600  1.26300e-05
      17.7700  1.30367e-05
      17.7800  1.37000e-05
      17.7900  1.42767e-05
      17.8000  1.48100e-05
      17.8100  1.52933e-05
      17.8200  1.57833e-05
      17.8300  1.62433e-05
      17.8400  1.67633e-05
      17.8500  1.73333e-05
      17.8600  1.79400e-05
      17.8700  1.86300e-05
      17.8800  1.93733e-05
      17.8900  2.02433e-05
      17.9000  2.11933e-05
      17.9100  2.21667e-05
      17.9200  2.30533e-05
      17.9300  2.42500e-05
      17.9400  2.56700e-05
      17.9500  2.71133e-05
      17.9600  2.92633e-05
      17.9700  3.14333e-05
      17.9800  3.37000e-05
      17.9900  3.65000e-05
      18.0000  3.92333e-05
      18.0100  4.21667e-05
      18.0200  4.46000e-05
      18.0300  4.69333e-05
      18.0400  5.09667e-05
      18.0500  5.49667e-05
      18.0600  5.95000e-05
      18.0700  6.48333e-05
      18.0800  7.09000e-05
      18.0900  7.86667e-05
      18.1000  8.67000e-05
      18.1100  9.94333e-05
      18.1200  0.000114533
      18.1300  0.000133900
      18.1400  0.000133867
      18.1500  0.000138033
      18.1600  0.000135367
      18.1700  0.000132200
      18.1800  0.000128033
      18.1900  0.000123600
      18.2000  0.000118233
      18.2100  0.000113467
      18.2200  8.13667e-05
      18.2300  9.85000e-05
      18.2400  0.000105633
      18.2500  0.000108833
      18.2600  0.000108300
      18.2700  7.89667e-05
      18.2800  3.88333e-05
      18.2900  4.76667e-05
      18.3000  3.74000e-05
      18.3100  2.98800e-05
      18.3200  2.41633e-05
      18.3300  1.97200e-05
      18.3400  1.64967e-05
      18.3500  1.40033e-05
      18.3600  1.20567e-05
      18.3700  1.05800e-05
      18.3800  7.44333e-06
      18.3900  8.90333e-06
      18.4000  6.51667e-06
      18.4100  7.41667e-06
      18.4200  8.51333e-06
      18.4300  9.24667e-06
      18.4400  9.49667e-06
      18.4500  9.01667e-06
      18.4600  7.74333e-06
      18.4700  5.90000e-06
      18.4800  3.99333e-06
      18.4900  4.27667e-06
      18.5000  7.55000e-06
      18.5100  1.12067e-05
      18.5200  1.42800e-05
      18.5300  1.62800e-05
      18.5400  1.63267e-05
      18.5500  1.33400e-05
      18.5600  2.84800e-06
      18.5700  1.37900e-06
      18.5800  1.47167e-06
      18.5900  1.57833e-06
      18.6000  1.68700e-06
      18.6100  1.81333e-06
      18.6200  1.57467e-05
      18.6300  2.38933e-05
      18.6400  2.74400e-05
      18.6500  2.65100e-05
      18.6600  2.11600e-05
      18.6700  8.75000e-06
      18.6800  2.93500e-06
      18.6900  3.08167e-06
      18.7000  3.19600e-06
      18.7100  7.40000e-06
      18.7200  2.34800e-05
      18.7300  3.41000e-05
      18.7400  4.22333e-05
      18.7500  4.83667e-05
      18.7600  5.30333e-05
      18.7700  5.65000e-05
      18.7800  5.87000e-05
      18.7900  5.98000e-05
      18.8000  5.98333e-05
      18.8100  5.91000e-05
      18.8200  5.78333e-05
      18.8300  5.65000e-05
      18.8400  5.63333e-05
      18.8500  5.77000e-05
      18.8600  6.03333e-05
      18.8700  6.42333e-05
      18.8800  6.92000e-05
      18.8900  7.40333e-05
      18.9000  7.96333e-05
      18.9100  8.54667e-05
      18.9200  9.17333e-05
      18.9300  9.75000e-05
      18.9400  0.000103067
      18.9500  0.000108067
      18.9600  0.000111500
      18.9700  0.000113267
      18.9800  0.000110767
      18.9900  0.000102500
      19.0000  8.59333e-05
      19.0100  5.57667e-05
      19.0200  2.86767e-05
      19.0300  3.12000e-05
      19.0400  3.39667e-05
      19.0500  6.14000e-05
      19.0600  0.000115267
      19.0700  0.000384667
      19.0800  0.000902000
      19.0900   0.00167933
      19.1000   0.00231167
      19.1100   0.00280867
      19.1200   0.00295900
      19.1300   0.00301867
      19.1400   0.00289700
      19.1500   0.00271100
      19.1600   0.00239167
      19.1700   0.00196367
      19.1800   0.00144667
      19.1900  0.000786667
      19.2000  0.000343667
      19.2100  0.000196533
      19.2200  7.55667e-05
      19.2300  0.000182967
      19.2400  0.000200500
      19.2500  0.000182000
      19.2600  0.000334333
      19.2700  0.000474333
      19.2800  0.000606333
      19.2900  0.000726667
      19.3000  0.000167400
      19.3100  0.000826333
      19.3200  0.000903667
      19.3300   0.00102167
      19.3400   0.00116533
      19.3500   0.00135667
      19.3600   0.00155100
      19.3700   0.00196267
      19.3800   0.00243967
      19.3900   0.00327200
      19.4000   0.00426667
      19.4100   0.00528333
      19.4200   0.00621000
      19.4300   0.00698333
      19.4400   0.00754333
      19.4500   0.00805000
      19.4600   0.00841333
      19.4700   0.00877000
      19.4800   0.00904667
      19.4900   0.00932000
      19.5000   0.00972000
      19.5100    0.0102100
      19.5200    0.0109567
      19.5300    0.0119633
      19.5400    0.0132333
      19.5500    0.0149433
      19.5600    0.0168667
      19.5700    0.0195633
      19.5800    0.0224100
      19.5900    0.0262700
      19.6000    0.0303333
      19.6100    0.0354667
      19.6200    0.0407667
      19.6300    0.0467333
      19.6400    0.0533667
      19.6500    0.0610000
      19.6600    0.0693000
      19.6700    0.0782667
      19.6800    0.0885667
      19.6900    0.0995333
      19.7000     0.113133
      19.7100     0.127067
      19.7200     0.143933
      19.7300     0.161500
      19.7400     0.182000
      19.7500     0.202800
      19.7600     0.225933
      19.7700     0.250433
      19.7800     0.276567
      19.7900     0.305033
      19.8000     0.334333
      19.8100     0.371000
      19.8200     0.407333
      19.8300     0.447333
      19.8400     0.487000
      19.8500     0.527000
      19.8600     0.567000
      19.8700     0.600333
      19.8800     0.633667
      19.8900     0.664000
      19.9000     0.691000
      19.9100     0.714667
      19.9200     0.738333
      19.9300     0.758333
      19.9400     0.778667
      19.9500     0.795333
      19.9600     0.809000
      19.9700     0.815667
      19.9800     0.822667
      19.9900     0.822667
      20.0000     0.823000
      20.0100     0.819667
      20.0200     0.819667
      20.0300     0.820000
      20.0400     0.820000
      20.0500     0.823333
      20.0600     0.827000
      20.0700     0.830333
      20.0800     0.833667
      20.0900     0.837000
      20.1000     0.837000
      20.1100     0.837333
      20.1200     0.840667
      20.1300     0.847333
      20.1400     0.857333
      20.1500     0.867333
      20.1600     0.880667
      20.1700     0.890667
      20.1800     0.900333
      20.1900     0.907000
      20.2000     0.907000
      20.2100     0.910333
      20.2200     0.907000
      20.2300     0.907000
      20.2400     0.903667
      20.2500     0.900333
      20.2600     0.897333
      20.2700     0.897333
      20.2800     0.890667
      20.2900     0.884000
      20.3000     0.877333
      20.3100     0.870667
      20.3200     0.864000
      20.3300     0.860667
      20.3400     0.860667
      20.3500     0.860667
      20.3600     0.867000
      20.3700     0.873667
      20.3800     0.883667
      20.3900     0.890333
      20.4000     0.897000
      20.4100     0.900333
      20.4200     0.903667
      20.4300     0.907000
      20.4400     0.910333
      20.4500     0.917000
      20.4600     0.923667
      20.4700     0.933667
      20.4800     0.940333
      20.4900     0.950333
      20.5000     0.950333
      20.5100     0.953667
      20.5200     0.950333
      20.5300     0.947000
      20.5400     0.940333
      20.5500     0.937000
      20.5600     0.933667
      20.5700     0.930333
      20.5800     0.930333
      20.5900     0.930333
      20.6000     0.927000
      20.6100     0.923667
      20.6200     0.920333
      20.6300     0.913667
      20.6400     0.910333
      20.6500     0.903667
      20.6600     0.903667
      20.6700     0.907000
      20.6800     0.913667
      20.6900     0.923667
      20.7000     0.930333
      20.7100     0.937000
      20.7200     0.940333
      20.7300     0.940333
      20.7400     0.937000
      20.7500     0.930333
      20.7600     0.923667
      20.7700     0.917000
      20.7800     0.910333
      20.7900     0.910333
      20.8000     0.910333
      20.8100     0.913667
      20.8200     0.913667
      20.8300     0.917000
      20.8400     0.920333
      20.8500     0.920333
      20.8600     0.917000
      20.8700     0.917000
      20.8800     0.917000
      20.8900     0.917000
      20.9000     0.920333
      20.9100     0.920333
      20.9200     0.923667
      20.9300     0.923667
      20.9400     0.923667
      20.9500     0.917000
      20.9600     0.910333
      20.9700     0.903667
      20.9800     0.893667
      20.9900     0.883667
      21.0000     0.880333
      21.0100     0.873667
      21.0200     0.877000
      21.0300     0.877000
      21.0400     0.883667
      21.0500     0.890333
      21.0600     0.893667
      21.0700     0.900333
      21.0800     0.907000
      21.0900     0.910333
      21.1000     0.917000
      21.1100     0.923667
      21.1200     0.930333
      21.1300     0.940333
      21.1400     0.950333
      21.1500     0.960000
      21.1600     0.970000
      21.1700     0.976667
      21.1800     0.983333
      21.1900     0.983333
      21.2000     0.983333
      21.2100     0.983333
      21.2200     0.983333
      21.2300     0.986667
      21.2400     0.986667
      21.2500     0.990000
      21.2600     0.996667
      21.2700      1.00000
      21.2800      1.00000
      21.2900      1.00000
      21.3000     0.993333
      21.3100     0.986667
      21.3200     0.976667
      21.3300     0.963333
      21.3400     0.956667
      21.3500     0.946667
      21.3600     0.940000
      21.3700     0.936667
      21.3800     0.933333
      21.3900     0.930000
      21.4000     0.926667
      21.4100     0.923333
      21.4200     0.920000
      21.4300     0.913333
      21.4400     0.910000
      21.4500     0.906667
      21.4600     0.906667
      21.4700     0.913333
      21.4800     0.920000
      21.4900     0.930000
      21.5000     0.943333
      21.5100     0.956667
      21.5200     0.966667
      21.5300     0.976667
      21.5400     0.983333
      21.5500     0.986667
      21.5600     0.990000
      21.5700     0.990000
      21.5800     0.990000
      21.5900     0.990000
      21.6000     0.990000
      21.6100     0.990000
      21.6200     0.990000
      21.6300     0.983333
      21.6400     0.980000
      21.6500     0.970000
      21.6600     0.956667
      21.6700     0.943333
      21.6800     0.926667
      21.6900     0.910000
      21.7000     0.896667
      21.7100     0.886667
      21.7200     0.880000
      21.7300     0.873333
      21.7400     0.873333
      21.7500     0.873333
      21.7600     0.873333
      21.7700     0.876667
      21.7800     0.876667
      21.7900     0.876667
      21.8000     0.876667
      21.8100     0.880000
      21.8200     0.886667
      21.8300     0.893333
      21.8400     0.906667
      21.8500     0.916667
      21.8600     0.933000
      21.8700     0.949667
      21.8800     0.959667
      21.8900     0.969667
      21.9000     0.976333
      21.9100     0.973000
      21.9200     0.969667
      21.9300     0.963000
      21.9400     0.953000
      21.9500     0.946333
      21.9600     0.939667
      21.9700     0.933000
      21.9800     0.929667
      21.9900     0.926333
      22.0000     0.923000
      22.0100     0.923000
      22.0200     0.919667
      22.0300     0.916333
      22.0400     0.909667
      22.0500     0.906333
      22.0600     0.899667
      22.0700     0.893000
      22.0800     0.890000
      22.0900     0.886667
      22.1000     0.883333
      22.1100     0.883333
      22.1200     0.880000
      22.1300     0.880000
      22.1400     0.876667
      22.1500     0.870000
      22.1600     0.866667
      22.1700     0.860000
      22.1800     0.853333
      22.1900     0.850000
      22.2000     0.843333
      22.2100     0.840000
      22.2200     0.840000
      22.2300     0.840000
      22.2400     0.840000
      22.2500     0.840000
      22.2600     0.836667
      22.2700     0.833333
      22.2800     0.830000
      22.2900     0.823333
      22.3000     0.816667
      22.3100     0.810000
      22.3200     0.800000
      22.3300     0.796667
      22.3400     0.790000
      22.3500     0.786667
      22.3600     0.786667
      22.3700     0.783333
      22.3800     0.780000
      22.3900     0.776667
      22.4000     0.770000
      22.4100     0.763333
      22.4200     0.753333
      22.4300     0.740000
      22.4400     0.726667
      22.4500     0.713333
      22.4600     0.700000
      22.4700     0.690000
      22.4800     0.683333
      22.4900     0.676667
      22.5000     0.673333
      22.5100     0.673333
      22.5200     0.670000
      22.5300     0.666667
      22.5400     0.663333
      22.5500     0.660000
      22.5600     0.653333
      22.5700     0.650000
      22.5800     0.646667
      22.5900     0.643333
      22.6000     0.643333
      22.6100     0.643333
      22.6200     0.650000
      22.6300     0.653333
      22.6400     0.660000
      22.6500     0.663333
      22.6600     0.670000
      22.6700     0.670000
      22.6800     0.670000
      22.6900     0.670000
      22.7000     0.666667
      22.7100     0.663333
      22.7200     0.663333
      22.7300     0.663333
      22.7400     0.663333
      22.7500     0.666667
      22.7600     0.670000
      22.7700     0.673333
      22.7800     0.676667
      22.7900     0.676667
      22.8000     0.673333
      22.8100     0.673333
      22.8200     0.666667
      22.8300     0.660000
      22.8400     0.650000
      22.8500     0.643333
      22.8600     0.636667
      22.8700     0.633333
      22.8800     0.630000
      22.8900     0.630000
      22.9000     0.630000
      22.9100     0.633333
      22.9200     0.633333
      22.9300     0.636667
      22.9400     0.640000
      22.9500     0.639667
      22.9600     0.639667
      22.9700     0.639667
      22.9800     0.643000
      22.9900     0.643000
      23.0000     0.649667
      23.0100     0.653000
      23.0200     0.659667
      23.0300     0.666333
      23.0400     0.673000
      23.0500     0.676333
      23.0600     0.679667
      23.0700     0.679667
      23.0800     0.676333
      23.0900     0.676333
      23.1000     0.673000
      23.1100     0.666333
      23.1200     0.663000
      23.1300     0.659667
      23.1400     0.656667
      23.1500     0.653333
      23.1600     0.653333
      23.1700     0.650000
      23.1800     0.643333
      23.1900     0.640000
      23.2000     0.633333
      23.2100     0.623333
      23.2200     0.616667
      23.2300     0.603333
      23.2400     0.590000
      23.2500     0.580000
      23.2600     0.566667
      23.2700     0.556667
      23.2800     0.546667
      23.2900     0.540000
      23.3000     0.533333
      23.3100     0.530000
      23.3200     0.523333
      23.3300     0.516667
      23.3400     0.513333
      23.3500     0.506667
      23.3600     0.500000
      23.3700     0.493333
      23.3800     0.486667
      23.3900     0.480000
      23.4000     0.473333
      23.4100     0.470000
      23.4200     0.466667
      23.4300     0.463333
      23.4400     0.460000
      23.4500     0.460000
      23.4600     0.456667
      23.4700     0.453333
      23.4800     0.450000
      23.4900     0.443333
      23.5000     0.436667
      23.5100     0.430000
      23.5200     0.423333
      23.5300     0.413333
      23.5400     0.406667
      23.5500     0.403333
      23.5600     0.396667
      23.5700     0.393333
      23.5800     0.393333
      23.5900     0.390000
      23.6000     0.390000
      23.6100     0.393333
      23.6200     0.393333
      23.6300     0.393333
      23.6400     0.393333
      23.6500     0.393333
      23.6600     0.393333
      23.6700     0.393333
      23.6800     0.393333
      23.6900     0.393333
      23.7000     0.396667
      23.7100     0.396667
      23.7200     0.400000
      23.7300     0.403333
      23.7400     0.406667
      23.7500     0.406667
      23.7600     0.406667
      23.7700     0.406667
      23.7800     0.406667
      23.7900     0.403333
      23.8000     0.403333
      23.8100     0.400000
      23.8200     0.400000
      23.8300     0.396667
      23.8400     0.396667
      23.8500     0.400000
      23.8600     0.400000
      23.8700     0.403333
      23.8800     0.410000
      23.8900     0.413333
      23.9000     0.420000
      23.9100     0.423333
      23.9200     0.426667
      23.9300     0.430000
      23.9400     0.433333
      23.9500     0.436667
      23.9600     0.440000
      23.9700     0.440000
      23.9800     0.443333
      23.9900     0.446667
      24.0000     0.450000
      24.0100     0.453333
      24.0200     0.460000
      24.0300     0.463333
      24.0400     0.470000
      24.0500     0.476667
      24.0600     0.480000
      24.0700     0.483333
      24.0800     0.483333
      24.0900     0.486667
      24.1000     0.486667
      24.1100     0.486667
      24.1200     0.486667
      24.1300     0.486667
      24.1400     0.486667
      24.1500     0.486667
      24.1600     0.490000
      24.1700     0.493333
      24.1800     0.496667
      24.1900     0.500000
      24.2000     0.503333
      24.2100     0.503333
      24.2200     0.503333
      24.2300     0.503333
      24.2400     0.500000
      24.2500     0.500000
      24.2600     0.496667
      24.2700     0.493333
      24.2800     0.490000
      24.2900     0.490000
      24.3000     0.486667
      24.3100     0.486667
      24.3200     0.490000
      24.3300     0.493333
      24.3400     0.493333
      24.3500     0.496667
      24.3600     0.496667
      24.3700     0.500000
      24.3800     0.500000
      24.3900     0.500000
      24.4000     0.500000
      24.4100     0.496667
      24.4200     0.496667
      24.4300     0.493333
      24.4400     0.493333
      24.4500     0.493333
      24.4600     0.490000
      24.4700     0.490000
      24.4800     0.490000
      24.4900     0.486667
      24.5000     0.486667
      24.5100     0.483333
      24.5200     0.480000
      24.5300     0.473667
      24.5400     0.470333
      24.5500     0.463667
      24.5600     0.457000
      24.5700     0.450333
      24.5800     0.443667
      24.5900     0.437000
      24.6000     0.430333
      24.6100     0.427000
      24.6200     0.423667
      24.6300     0.420333
      24.6400     0.420333
      24.6500     0.420333
      24.6600     0.417000
      24.6700     0.417000
      24.6800     0.417000
      24.6900     0.413667
      24.7000     0.410333
      24.7100     0.410333
      24.7200     0.407000
      24.7300     0.400333
      24.7400     0.397000
      24.7500     0.393667
      24.7600     0.390333
      24.7700     0.390333
      24.7800     0.387000
      24.7900     0.387000
      24.8000     0.387000
      24.8100     0.387000
      24.8200     0.387000
      24.8300     0.383667
      24.8400     0.383667
      24.8500     0.380333
      24.8600     0.377000
      24.8700     0.373667
      24.8800     0.367000
      24.8900     0.363667
      24.9000     0.360333
      24.9100     0.357000
      24.9200     0.353667
      24.9300     0.350333
      24.9400     0.350333
      24.9500     0.347000
      24.9600     0.343667
      24.9700     0.343667
      24.9800     0.340333
      24.9900     0.337000
      25.0000     0.333333
      25.0100     0.329733
      25.0200     0.324400
      25.0300     0.318767
      25.0400     0.313100
      25.0500     0.307133
      25.0600     0.301167
      25.0700     0.295167
      25.0800     0.290200
      25.0900     0.285900
      25.1000     0.281600
      25.1100     0.278267
      25.1200     0.275600
      25.1300     0.272933
      25.1400     0.270567
      25.1500     0.268533
      25.1600     0.266500
      25.1700     0.264467
      25.1800     0.262800
      25.1900     0.260800
      25.2000     0.259133
      25.2100     0.257500
      25.2200     0.256200
      25.2300     0.254900
      25.2400     0.254267
      25.2500     0.253633
      25.2600     0.253333
      25.2700     0.253667
      25.2800     0.254000
      25.2900     0.254000
      25.3000     0.254000
      25.3100     0.254000
      25.3200     0.253667
      25.3300     0.252000
      25.3400     0.250633
      25.3500     0.248633
      25.3600     0.245967
      25.3700     0.243267
      25.3800     0.240600
      25.3900     0.237933
      25.4000     0.235233
      25.4100     0.232900
      25.4200     0.230900
      25.4300     0.228900
      25.4400     0.226900
      25.4500     0.224900
      25.4600     0.222267
      25.4700     0.219933
      25.4800     0.216300
      25.4900     0.212000
      25.5000     0.208000
      25.5100     0.203033
      25.5200     0.197400
      25.5300     0.192100
      25.5400     0.186800
      25.5500     0.182167
      25.5600     0.177533
      25.5700     0.173533
      25.5800     0.170900
      25.5900     0.168567
      25.6000     0.166267
      25.6100     0.164600
      25.6200     0.162933
      25.6300     0.161300
      25.6400     0.158633
      25.6500     0.155333
      25.6600     0.152367
      25.6700     0.148067
      25.6800     0.143133
      25.6900     0.137867
      25.7000     0.132567
      25.7100     0.126933
      25.7200     0.121333
      25.7300     0.116033
      25.7400     0.112033
      25.7500     0.107700
      25.7600     0.104033
      25.7700     0.102433
      25.7800     0.100800
      25.7900    0.0992000
      25.8000    0.0992667
      25.8100    0.0993667
      25.8200    0.0997667
      25.8300     0.100500
      25.8400     0.101533
      25.8500     0.102933
      25.8600     0.103967
      25.8700     0.105600
      25.8800     0.106933
      25.8900     0.108567
      25.9000     0.110167
      25.9100     0.111767
      25.9200     0.113400
      25.9300     0.114367
      25.9400     0.115667
      25.9500     0.116667
      25.9600     0.117000
      25.9700     0.117300
      25.9800     0.117333
      25.9900     0.117000
      26.0000     0.116033
      26.0100     0.114733
      26.0200     0.113467
      26.0300     0.111500
      26.0400     0.109567
      26.0500     0.107633
      26.0600     0.105400
      26.0700     0.103133
      26.0800     0.100900
      26.0900    0.0990000
      26.1000    0.0971000
      26.1100    0.0952333
      26.1200    0.0933667
      26.1300    0.0915333
      26.1400    0.0899667
      26.1500    0.0880667
      26.1600    0.0861667
      26.1700    0.0842333
      26.1800    0.0820333
      26.1900    0.0794333
      26.2000    0.0767667
      26.2100    0.0741667
      26.2200    0.0715000
      26.2300    0.0691000
      26.2400    0.0667000
      26.2500    0.0646000
      26.2600    0.0634667
      26.2700    0.0626000
      26.2800    0.0614667
      26.2900    0.0620000
      26.3000    0.0622667
      26.3100    0.0628333
      26.3200    0.0635000
      26.3300    0.0642000
      26.3400    0.0649000
      26.3500    0.0652667
      26.3600    0.0656000
      26.3700    0.0656333
      26.3800    0.0656667
      26.3900    0.0656667
      26.4000    0.0653667
      26.4100    0.0650333
      26.4200    0.0650667
      26.4300    0.0650667
      26.4400    0.0650667
      26.4500    0.0651000
      26.4600    0.0651667
      26.4700    0.0652333
      26.4800    0.0652667
      26.4900    0.0643667
      26.5000    0.0635000
      26.5100    0.0626000
      26.5200    0.0611333
      26.5300    0.0589667
      26.5400    0.0568000
      26.5500    0.0546667
      26.5600    0.0524667
      26.5700    0.0499667
      26.5800    0.0477333
      26.5900    0.0452000
      26.6000    0.0431667
      26.6100    0.0409000
      26.6200    0.0386667
      26.6300    0.0364000
      26.6400    0.0341667
      26.6500    0.0319000
      26.6600    0.0297400
      26.6700    0.0275833
      26.6800    0.0253667
      26.6900    0.0237300
      26.7000    0.0234867
      26.7100    0.0229767
      26.7200    0.0220867
      26.7300    0.0799000
      26.7400    0.0889333
      26.7500    0.0887333
      26.7600    0.0896667
      26.7700    0.0867000
      26.7800    0.0837333
      26.7900    0.0810667
      26.8000    0.0784000
      26.8100    0.0757333
      26.8200    0.0731333
      26.8300    0.0701667
      26.8400    0.0670667
      26.8500    0.0641000
      26.8600    0.0612667
      26.8700    0.0585333
      26.8800    0.0560000
      26.8900    0.0535333
      26.9000    0.0511667
      26.9100    0.0489667
      26.9200    0.0468333
      26.9300    0.0448000
      26.9400    0.0428667
      26.9500    0.0409333
      26.9600    0.0391000
      26.9700    0.0373667
      26.9800    0.0356667
      26.9900    0.0340000
      27.0000    0.0319900
      27.0100    0.0296733
      27.0200    0.0273733
      27.0300    0.0239900
      27.0400    0.0146633
      27.0500    0.0157133
      27.0600    0.0169200
      27.0700    0.0183433
      27.0800    0.0193867
      27.0900    0.0204467
      27.1000    0.0215200
      27.1100    0.0222533
      27.1200    0.0226367
      27.1300    0.0229467
      27.1400    0.0232767
      27.1500    0.0231633
      27.1600    0.0230633
      27.1700    0.0229467
      27.1800    0.0227167
      27.1900    0.0224200
      27.2000    0.0221600
      27.2100    0.0219167
      27.2200    0.0214500
      27.2300    0.0208700
      27.2400    0.0203533
      27.2500    0.0196467
      27.2600    0.0182533
      27.2700    0.0168700
      27.2800    0.0155700
      27.2900    0.0137000
      27.3000    0.0116500
      27.3100   0.00979333
      27.3200   0.00798000
      27.3300   0.00476000
      27.3400   0.00282900
      27.3500   0.00171433
      27.3600   0.00132567
      27.3700  0.000208767
      27.3800  0.000347333
      27.3900  0.000292667
      27.4000  0.000245933
      27.4100  0.000207767
      27.4200  0.000174500
      27.4300  0.000147300
      27.4400  0.000124400
      27.4500  0.000104400
      27.4600  8.77667e-05
      27.4700  7.38000e-05
      27.4800  6.20333e-05
      27.4900  5.20667e-05
      27.5000  4.38333e-05
      27.5100  3.68333e-05
      27.5200  3.09267e-05
      27.5300  2.59833e-05
      27.5400  2.35900e-05
      27.5500  2.20833e-05
      27.5600  2.06400e-05
      27.5700  1.93200e-05
      27.5800  1.80033e-05
      27.5900  1.68667e-05
      27.6000  1.57900e-05
      27.6100  1.47733e-05
      27.6200  1.38200e-05
      27.6300  1.29267e-05
      27.6400  1.20933e-05
      27.6500  1.12600e-05
      27.6600  1.05300e-05
      27.6700  9.84333e-06
      27.6800  9.21000e-06
      27.6900  8.59000e-06
      27.7000  8.01333e-06
      27.7100  7.49667e-06
      27.7200  1.59133e-05
      27.7300  2.39500e-05
      27.7400  5.76667e-05
      27.7500  0.000291833
      27.7600   0.00267667
      27.7700   0.00356333
      27.7800   0.00467000
      27.7900   0.00599667
      27.8000   0.00701667
      27.8100   0.00728333
      27.8200   0.00747667
      27.8300   0.00774333
      27.8400   0.00782333
      27.8500   0.00784000
      27.8600   0.00786333
      27.8700   0.00789667
      27.8800   0.00785000
      27.8900   0.00784000
      27.9000   0.00783667
      27.9100   0.00771333
      27.9200   0.00709667
      27.9300   0.00656667
      27.9400   0.00605333
      27.9500   0.00506000
      27.9600   0.00371000
      27.9700   0.00269700
      27.9800   0.00197233
      27.9900  0.000437000
      28.0000  0.000122000
      28.0500  2.93233e-05
      28.1000  3.54667e-05
      28.1500  3.82667e-05
      28.2000  4.14000e-05
      28.2500  4.50333e-05
      28.3000  4.72333e-05
      28.3500  4.63333e-05
      28.4000  4.59333e-05
      28.4500  4.57000e-05
      28.5000  4.22000e-05
      28.5500  3.63000e-05
      28.5501  0.0
